File: hust_correlation_analysis/matrices/HUST_7-1_cycle_feature_matrix.csv
cycle_number,rul,voltage,current,capacity,charge_capacity
1,1692,3.3245,-0.0172629,0.273351,0.997298
9,1684,3.31237,-0.0199887,0.278537,0.990148
17,1676,3.31286,-0.0221485,0.278076,0.989531
25,1668,3.31397,-0.0206032,0.276566,0.988383
33,1660,3.31315,-0.0220721,0.276551,0.987733
41,1652,3.31561,-0.0199549,0.275034,0.986784
49,1644,3.31523,-0.0205734,0.275024,0.986494
57,1636,3.31497,-0.0221888,0.275029,0.985827
65,1628,3.31594,-0.0200114,0.273969,0.984668
73,1620,3.31538,-0.0206664,0.273965,0.984363
81,1612,3.3157,-0.0213412,0.273962,0.984085
89,1604,3.31473,-0.0228877,0.273968,0.98348
97,1596,3.31633,-0.0201297,0.272914,0.982566
105,1588,3.31631,-0.0207438,0.27291,0.982296
113,1580,3.31533,-0.0222867,0.273364,0.981402
121,1572,3.31475,-0.0230638,0.273373,0.981122
129,1564,3.31694,-0.0201278,0.271401,0.980506
137,1556,3.31594,-0.0208867,0.272302,0.979905
145,1548,3.31588,-0.0215688,0.272729,0.979636
153,1540,3.31558,-0.022278,0.272305,0.979347
161,1532,3.31485,-0.0231087,0.272306,0.978984
169,1524,3.31649,-0.020241,0.27124,0.978088
177,1516,3.31685,-0.0209541,0.271244,0.977807
185,1508,3.31608,-0.0216613,0.271244,0.977525
193,1500,3.31508,-0.0223943,0.271689,0.976918
201,1492,3.31466,-0.0234167,0.272149,0.976249
209,1484,3.31654,-0.0203436,0.270635,0.975706
217,1476,3.31644,-0.0210789,0.270624,0.975377
225,1468,3.31592,-0.0217584,0.270621,0.975072
233,1460,3.31545,-0.0224296,0.271066,0.974505
241,1452,3.31539,-0.0233511,0.271071,0.974148
249,1444,3.31794,-0.0203907,0.269548,0.973526
257,1436,3.31649,-0.0212101,0.270093,0.972908
265,1428,3.31598,-0.0211771,0.269623,0.973196
273,1420,3.31607,-0.0218843,0.270003,0.972645
281,1412,3.31551,-0.0226914,0.270439,0.971988
289,1404,3.31507,-0.0225803,0.270421,0.971947
297,1396,3.31735,-0.0204588,0.269387,0.971034
305,1388,3.3161,-0.0211666,0.269357,0.970469
313,1380,3.31508,-0.0212821,0.269811,0.970146
321,1372,3.316,-0.0227914,0.269374,0.969862
329,1364,3.31512,-0.0235726,0.269828,0.96927
337,1356,3.31735,-0.0205631,0.268297,0.968908
345,1348,3.31657,-0.0213913,0.268307,0.968349
353,1340,3.31593,-0.0220388,0.268761,0.967816
361,1332,3.31582,-0.0228744,0.268753,0.96745
369,1324,3.31517,-0.0228954,0.268755,0.967444
377,1316,3.31731,-0.020618,0.26768,0.966298
385,1308,3.31692,-0.0215125,0.267687,0.965937
393,1300,3.31586,-0.0222839,0.268134,0.965323
401,1292,3.31573,-0.0222489,0.268134,0.965336
409,1284,3.31493,-0.0238152,0.268602,0.964455
417,1276,3.3179,-0.0200852,0.266609,0.964418
425,1268,3.31699,-0.020814,0.267058,0.963813
433,1260,3.31777,-0.0215028,0.26661,0.96384
441,1252,3.31649,-0.0230854,0.267061,0.962911
449,1244,3.31539,-0.0231185,0.267522,0.962884
457,1236,3.31723,-0.0201626,0.265985,0.961999
465,1228,3.31662,-0.0217271,0.266443,0.961102
473,1220,3.31656,-0.0224573,0.266442,0.960787
481,1212,3.31636,-0.0232067,0.266439,0.960458
489,1204,3.31553,-0.0240486,0.266895,0.959864
497,1196,3.31701,-0.0209845,0.265356,0.959284
505,1188,3.3171,-0.0218066,0.26536,0.958956
513,1180,3.31544,-0.0224973,0.265813,0.958383
521,1172,3.3156,-0.0233991,0.265813,0.95825
529,1164,3.31453,-0.0242145,0.266282,0.957427
537,1156,3.31693,-0.0212582,0.265142,0.956739
545,1148,3.31671,-0.0220113,0.264715,0.956399
553,1140,3.31608,-0.0234961,0.265167,0.95551
561,1132,3.31509,-0.0241261,0.265169,0.955262
569,1124,3.317504,-0.0211858,0.263622,0.954597
577,1116,3.31625,-0.0219839,0.264078,0.953989
585,1108,3.31575,-0.0236504,0.264554,0.953084
593,1100,3.31519,-0.0243659,0.264548,0.952774
601,1092,3.31698,-0.0213652,0.262992,0.95212
609,1084,3.31639,-0.0228852,0.263554,0.951256
617,1076,3.3159,-0.0236321,0.263455,0.950958
625,1068,3.31769,-0.0206944,0.262845,0.950008
633,1060,3.3169,-0.0220943,0.262353,0.949415
641,1052,3.31664,-0.0230515,0.262363,0.949048
649,1044,3.31569,-0.0244919,0.262823,0.948208
657,1036,3.31688,-0.0215894,0.261722,0.945946
665,1028,3.3162,-0.0231536,0.262178,0.946528
673,1020,3.31578,-0.0239743,0.26219,0.946001
681,1012,3.31711,-0.0217436,0.261092,0.944743
689,1004,3.31643,-0.0232291,0.261091,0.944144
697,996,3.31532,-0.0240137,0.261545,0.943529
705,988,3.31714,-0.0218092,0.260539,0.942278
713,980,3.31639,-0.0225522,0.260444,0.941974
721,972,3.31557,-0.0242278,0.260908,0.94102
729,964,3.31682,-0.0220362,0.259797,0.93971
737,956,3.31646,-0.0226725,0.259792,0.939457
745,948,3.31592,-0.0242913,0.259794,0.938809
753,940,3.31705,-0.0220282,0.259147,0.937254
761,932,3.31702,-0.0227576,0.258685,0.937257
769,924,3.31596,-0.0244923,0.25915,0.936285
777,916,3.31687,-0.0220429,0.258034,0.935082
785,908,3.31613,-0.0228924,0.258035,0.934743
793,900,3.31577,-0.0245523,0.258505,0.933825
801,892,3.3175,-0.0221918,0.257401,0.932619
809,884,3.31669,-0.0238452,0.257403,0.931965
817,876,3.31496,-0.0254923,0.257866,0.931032
825,868,3.31656,-0.023183,0.256763,0.929796
833,860,3.31568,-0.02411,0.25722,0.929131
841,852,3.31772,-0.022433,0.25564,0.927919
849,844,3.31666,-0.0232787,0.256104,0.927286
857,836,3.31613,-0.024891,0.256084,0.926597
865,828,3.3175,-0.0225058,0.254962,0.925351
873,820,3.31521,-0.0243314,0.255917,0.92411
881,812,3.31505,-0.0250243,0.255438,0.924111
889,804,3.31693,-0.0226878,0.254311,0.922817
897,796,3.31656,-0.024301,0.254309,0.922194
905,788,3.31778,-0.0226406,0.253194,0.920691
913,780,3.31589,-0.0244673,0.254138,0.919407
921,772,3.31477,-0.0262877,0.25461,0.918411
929,764,3.31699,-0.0237287,0.253005,0.917506
937,756,3.31629,-0.0253972,0.253004,0.916856
945,748,3.31689,-0.0232177,0.252348,0.915215
953,740,3.31645,-0.0247218,0.252349,0.914635
961,732,3.31539,-0.026477,0.252838,0.913724
969,724,3.31739,-0.0238618,0.251219,0.9128
977,716,3.31485,-0.0266219,0.252171,0.911163
985,708,3.31618,-0.0242073,0.251036,0.909894
993,700,3.31582,-0.0259186,0.251037,0.90926
1001,692,3.31662,-0.0243733,0.25038,0.907375
1009,684,3.31541,-0.0259822,0.250373,0.90698
1017,676,3.31608,-0.0238869,0.249718,0.90506
1025,668,3.31534,-0.0262815,0.250195,0.903864
1033,660,3.3165,-0.0236775,0.248559,0.90291
1041,652,3.31508,-0.0264027,0.249524,0.901299
1049,644,3.31665,-0.023767,0.247967,0.900337
1057,636,3.31484,-0.026571,0.248853,0.898686
1065,628,3.31529,-0.0247794,0.248188,0.896862
1073,620,3.31519,-0.0267374,0.248171,0.896092
1081,612,3.31545,-0.0241654,0.247013,0.894808
1089,604,3.3147,-0.0269013,0.247494,0.89349
1097,596,3.31566,-0.0252513,0.246344,0.891895
1105,588,3.31333,-0.0269768,0.246824,0.890936
1113,580,3.31538,-0.0252016,0.245658,0.889357
1121,572,3.31527,-0.0236769,0.244987,0.887401
1129,564,3.31429,-0.0265386,0.245482,0.886064
1137,556,3.31502,-0.0247864,0.244308,0.884437
1145,548,3.3131,-0.0276046,0.245305,0.882826
1153,540,3.31498,-0.0256376,0.243608,0.88035
1161,532,3.31553,-0.0241512,0.24294,0.879555
1169,524,3.31365,-0.0269168,0.243441,0.878263
1177,516,3.31449,-0.0262557,0.242759,0.875931
1185,508,3.31214,-0.0288445,0.243326,0.874677
1193,500,3.31336,-0.0271629,0.242566,0.872701
1201,492,3.31389,-0.0255864,0.241373,0.870989
1209,484,3.31239,-0.0292343,0.241874,0.869372
1217,476,3.31283,-0.0276103,0.241424,0.867355
1225,468,3.31326,-0.0270076,0.240495,0.864981
1233,460,3.31417,-0.025084,0.239289,0.863367
1241,452,3.31191,-0.0358152,0.240294,0.861443
1249,444,3.31214,-0.0342468,0.238582,0.859702
1257,436,3.31331,-0.0285255,0.236848,0.857379
1265,428,3.31144,-0.0278081,0.23686,0.855352
1273,420,3.31216,-0.0259933,0.235705,0.853686
1281,412,3.31328,-0.0298491,0.233903,0.85136
1289,404,3.31385,-0.0257042,0.232165,0.849622
1297,396,3.31145,-0.0269404,0.232662,0.847702
1305,388,3.31334,-0.0308,0.230919,0.84571
1313,380,3.31433,-0.0265196,0.228691,0.844023
1321,372,3.31177,-0.0280185,0.229187,0.842044
1329,364,3.3133,-0.0318359,0.226956,0.840049
1337,356,3.31387,-0.0277813,0.225711,0.837985
1345,348,3.31413,-0.0244049,0.224475,0.83571
1353,340,3.31252,-0.0355658,0.224473,0.834076
1361,332,3.31301,-0.0314149,0.22322,0.83202
1369,324,3.31313,-0.0280057,0.221968,0.829729
1377,316,3.31394,-0.024833,0.220709,0.827341
1385,308,3.31126,-0.0361868,0.221199,0.825386
1393,300,3.31161,-0.0329324,0.21994,0.823035
1401,292,3.31197,-0.0295227,0.218666,0.820707
1409,284,3.31292,-0.0349795,0.216901,0.819067
1417,276,3.31421,-0.0292146,0.215132,0.816653
1425,268,3.31137,-0.0305991,0.215616,0.814714
1433,260,3.31225,-0.0371033,0.213845,0.81275
1441,252,3.31351,-0.0313836,0.212077,0.810326
1449,244,3.3139,-0.0278251,0.210784,0.808014
1457,236,3.311,-0.0295691,0.211265,0.805995
1465,228,3.31214,-0.0360268,0.209485,0.804059
1473,220,3.31218,-0.0302976,0.20819,0.801296
1481,212,3.31339,-0.0265498,0.206401,0.799354
1489,204,3.3137,-0.0349327,0.205282,0.797685
1497,196,3.31131,-0.0351083,0.205573,0.795021
1505,188,3.31263,-0.0288957,0.203304,0.793008
1513,180,3.31228,-0.0383828,0.202459,0.790704
1521,172,3.31308,-0.0349677,0.201135,0.788332
1529,164,3.31388,-0.0287876,0.199335,0.785975
1537,156,3.31442,-0.035711,0.197525,0.783955
1545,148,3.31167,-0.0373417,0.197995,0.782238
1553,140,3.3124,-0.0347338,0.196655,0.779369
1561,132,3.31307,-0.0286859,0.194838,0.776943
1569,124,3.31377,-0.0354783,0.193018,0.774982
1577,116,3.31409,-0.0318634,0.192131,0.772641
1585,108,3.31526,-0.0266951,0.18984,0.769926
1593,100,3.31229,-0.0416332,0.190292,0.768346
1601,92,3.31312,-0.0352352,0.188467,0.765998
1609,84,3.31405,-0.0301207,0.186639,0.763258
1617,76,3.31323,-0.0401377,0.185721,0.760971
1625,68,3.3141,-0.0376395,0.184345,0.758297
1633,60,3.31635,-0.0282623,0.181596,0.756265
1641,52,3.31551,-0.0392994,0.180652,0.753656
1649,44,3.31607,-0.0382395,0.179247,0.751688
1657,36,3.31664,-0.0330706,0.177401,0.748943
1665,28,3.3177,-0.0276911,0.175551,0.746256
1673,20,3.31928,-0.0331162,0.173263,0.743976
1681,12,3.31874,-0.0321467,0.17227,0.741661
1689,4,3.31947,-0.0267203,0.17042,0.738966
1690,3,3.31888,-0.0278394,0.170413,0.738643