File: hust_correlation_analysis/matrices/HUST_8-7_cycle_feature_matrix.csv
cycle_number,rul,voltage,current,capacity,charge_capacity
1,2049,3.31799,-0.0128131,0.286855,1.01163
11,2039,3.30596,-0.0154295,0.291078,1.00567
21,2029,3.30606,-0.0173646,0.290636,1.00471
31,2019,3.30732,-0.015487,0.289275,1.00376
41,2009,3.30759,-0.0166343,0.289249,1.00312
51,1999,3.30668,-0.0173712,0.289241,1.00273
61,1989,3.30819,-0.0147525,0.287879,1.00212
71,1979,3.30818,-0.0154227,0.287884,1.00204
81,1969,3.30783,-0.0167215,0.287879,1.00114
91,1959,3.30824,-0.0173033,0.287442,1.00107
101,1949,3.30924,-0.0147629,0.286513,1.00018
111,1939,3.3097,-0.0153398,0.286306,1.00017
121,1929,3.3092,-0.016082,0.286521,0.999568
131,1919,3.30924,-0.0167726,0.286518,0.999233
141,1909,3.30875,-0.0174478,0.286519,0.998889
151,1899,3.31092,-0.0147955,0.285168,0.998307
161,1889,3.31058,-0.0154691,0.285174,0.997985
171,1879,3.31032,-0.0154356,0.285176,0.998029
181,1869,3.31022,-0.0161631,0.285183,0.997684
191,1859,3.31015,-0.0167991,0.285191,0.997396
201,1849,3.30991,-0.0174905,0.28519,0.99706
211,1839,3.31018,-0.0173991,0.284761,0.997309
221,1829,3.31179,-0.014736,0.283398,0.996711
231,1819,3.31184,-0.0147538,0.283395,0.996707
241,1809,3.31102,-0.0154388,0.283403,0.99637
251,1799,3.3113,-0.0160856,0.283396,0.996012
261,1789,3.3107,-0.016106,0.283377,0.995935
271,1779,3.31069,-0.0162062,0.283366,0.995866
281,1769,3.31052,-0.0167617,0.283361,0.995573
291,1759,3.31049,-0.017398,0.282943,0.995521
301,1749,3.31343,-0.0147236,0.281166,0.995143
311,1739,3.31298,-0.0154578,0.281166,0.994785
321,1729,3.31286,-0.0160504,0.281183,0.994524
331,1719,3.31262,-0.0161018,0.28116,0.994447
341,1709,3.31259,-0.0166919,0.280756,0.994412
351,1699,3.31237,-0.0174265,0.28076,0.994039
361,1689,3.31426,-0.0147754,0.279407,0.993454
371,1679,3.31418,-0.0154579,0.279171,0.993408
381,1669,3.31399,-0.0161054,0.279406,0.9928
391,1659,3.31388,-0.016852,0.279421,0.992432
401,1649,3.31396,-0.0174621,0.279414,0.992138
411,1639,3.31402,-0.0173866,0.278992,0.992385
421,1629,3.31554,-0.0147411,0.277655,0.991805
431,1619,3.31509,-0.0155016,0.277658,0.991438
441,1609,3.31511,-0.016154,0.277665,0.991113
451,1599,3.31566,-0.0167175,0.277239,0.991025
461,1589,3.31583,-0.0173136,0.277236,0.990712
471,1579,3.31739,-0.0148586,0.275919,0.990087
481,1569,3.31686,-0.0153925,0.275834,0.989784
491,1559,3.31635,-0.0161074,0.275516,0.989379
501,1549,3.31596,-0.0167306,0.275896,0.989072
511,1539,3.31628,-0.0167867,0.275482,0.98925
521,1529,3.31839,-0.014778,0.274154,0.988367
531,1519,3.3176,-0.0154899,0.274552,0.987761
541,1509,3.31717,-0.0160226,0.274552,0.987492
551,1499,3.31695,-0.0168152,0.27456,0.987105
561,1489,3.31636,-0.0175249,0.274553,0.986709
571,1479,3.31892,-0.0148268,0.272894,0.986361
581,1469,3.31889,-0.0154731,0.272808,0.986058
591,1459,3.3183,-0.0161404,0.273202,0.985689
601,1449,3.31801,-0.0169228,0.27324,0.985155
611,1439,3.31766,-0.0174889,0.27282,0.985045
621,1429,3.32023,-0.0148098,0.27108,0.984701
631,1419,3.32038,-0.0155279,0.271091,0.984356
641,1409,3.31952,-0.016248,0.271766,0.983789
651,1399,3.31927,-0.0175315,0.271506,0.983137
661,1389,3.32041,-0.0149293,0.270839,0.982311
671,1379,3.32029,-0.0155122,0.270162,0.982208
681,1369,3.32062,-0.0156571,0.269754,0.982341
691,1359,3.32132,-0.0160784,0.269341,0.982547
701,1349,3.32024,-0.0174603,0.270151,0.98116
711,1339,3.32143,-0.014823,0.268807,0.980555
721,1329,3.32157,-0.0154712,0.268404,0.980414
731,1319,3.32162,-0.0161647,0.268418,0.980083
741,1309,3.32078,-0.0169643,0.268608,0.979472
751,1299,3.3202,-0.0181859,0.26881,0.979052
761,1289,3.32206,-0.0149997,0.267482,0.9783
771,1279,3.32096,-0.0163416,0.267886,0.977607
781,1269,3.32166,-0.0163102,0.26768,0.97784
791,1259,3.32138,-0.017621,0.267489,0.977155
801,1249,3.32323,-0.0149853,0.266139,0.976769
811,1239,3.32291,-0.0156625,0.266148,0.976171
821,1229,3.32122,-0.0169793,0.266916,0.974991
831,1219,3.32152,-0.0175982,0.266512,0.974834
841,1209,3.32341,-0.0156764,0.265193,0.973906
851,1199,3.32277,-0.0163132,0.26558,0.973336
861,1189,3.32331,-0.0170037,0.265186,0.973209
871,1179,3.32349,-0.0151102,0.264666,0.971822
881,1169,3.32342,-0.0157636,0.264666,0.971487
891,1159,3.32273,-0.0170738,0.264666,0.97079
901,1149,3.32413,-0.015102,0.263734,0.969626
911,1139,3.32378,-0.0158953,0.263743,0.969238
921,1129,3.32233,-0.0179856,0.264548,0.96774
931,1119,3.32405,-0.0151396,0.262793,0.967389
941,1109,3.32349,-0.0166062,0.263198,0.966432
951,1099,3.32273,-0.0178006,0.263184,0.965767
961,1089,3.32334,-0.0159292,0.262657,0.964342
971,1079,3.32252,-0.0173723,0.263075,0.963443
981,1069,3.32439,-0.0146599,0.26132,0.963015
991,1059,3.32365,-0.0160187,0.261716,0.962091
1001,1049,3.32351,-0.0179335,0.261718,0.961098
1011,1039,3.32429,-0.015328,0.260782,0.960239
1021,1029,3.32349,-0.0167201,0.261174,0.959272
1031,1019,3.32423,-0.0155153,0.260661,0.957557
1041,1009,3.32371,-0.0220007,0.260254,0.956712
1051,999,3.32267,-0.0234635,0.260662,0.955771
1061,989,3.32459,-0.0160101,0.258098,0.954435
1071,979,3.32341,-0.0175065,0.258503,0.95348
1081,969,3.32456,-0.0154749,0.257556,0.952305
1091,959,3.32417,-0.0151117,0.257149,0.951426
1101,949,3.32342,-0.0215291,0.256743,0.950587
1111,939,3.32487,-0.0160622,0.254983,0.949056
1121,929,3.32464,-0.0174023,0.255159,0.948323
1131,919,3.32578,-0.0213812,0.254061,0.946471
1141,909,3.32417,-0.0228414,0.254439,0.945464
1151,899,3.32563,-0.0189441,0.253094,0.944194
1161,889,3.32456,-0.0203039,0.253496,0.94334
1171,879,3.326,-0.0165935,0.251751,0.942138
1181,869,3.32556,-0.0161517,0.251358,0.941322
1191,859,3.32387,-0.0235802,0.251746,0.939594
1201,849,3.32558,-0.0197986,0.250416,0.938315
1211,839,3.32496,-0.0182795,0.250019,0.936777
1221,829,3.32584,-0.0144739,0.248622,0.935458
1231,819,3.32522,-0.0158257,0.24867,0.934741
1241,809,3.32614,-0.0198269,0.247345,0.933032
1251,799,3.32508,-0.0211474,0.247735,0.932167
1261,789,3.32703,-0.0143941,0.245612,0.930189
1271,779,3.32519,-0.0236167,0.24639,0.928674
1281,769,3.32606,-0.0204279,0.245045,0.927016
1291,759,3.32428,-0.0201608,0.245433,0.925685
1301,749,3.32548,-0.0170169,0.244145,0.923986
1311,739,3.32656,-0.0138566,0.242734,0.922294
1321,729,3.32464,-0.0224868,0.24352,0.92115
1331,719,3.32628,-0.0199295,0.242164,0.919132
1341,709,3.32516,-0.0177661,0.241707,0.917845
1351,699,3.32509,-0.0225388,0.241197,0.915366
1361,689,3.32568,-0.0192531,0.239842,0.913696
1371,679,3.32461,-0.0196224,0.2399,0.91225
1381,669,3.3251,-0.0165548,0.238883,0.910324
1391,659,3.3259,-0.0150684,0.237918,0.908847
1401,649,3.32363,-0.0234765,0.238702,0.90663
1411,639,3.32491,-0.018417,0.236966,0.904786
1421,629,3.32485,-0.0160738,0.236399,0.902313
1431,619,3.32396,-0.0170654,0.236638,0.900552
1441,609,3.32345,-0.0238543,0.236214,0.89823
1451,599,3.32384,-0.0193748,0.234847,0.895849
1461,589,3.32465,-0.015158,0.233687,0.89345
1471,579,3.32437,-0.0217453,0.232717,0.891409
1481,569,3.32242,-0.024097,0.233706,0.889877
1491,559,3.3233,-0.016677,0.23157,0.886767
1501,549,3.3234,-0.0160318,0.231353,0.884633
1511,539,3.32311,-0.0208557,0.230381,0.881975
1521,529,3.32334,-0.0183707,0.229407,0.879942
1531,519,3.32121,-0.0195766,0.229783,0.877881
1541,509,3.32155,-0.0170223,0.228812,0.875653
1551,499,3.32215,-0.0225441,0.227847,0.873175
1561,489,3.32251,-0.0162441,0.226097,0.870527
1571,479,3.32113,-0.0239282,0.225884,0.867881
1581,469,3.32213,-0.0212269,0.224515,0.865895
1591,459,3.32267,-0.017507,0.223537,0.862916
1601,449,3.32114,-0.0189928,0.223701,0.86069
1611,439,3.32211,-0.0218638,0.22195,0.858599
1621,429,3.32011,-0.021991,0.22232,0.855782
1631,419,3.32016,-0.0199843,0.221344,0.853296
1641,409,3.32049,-0.0253304,0.220356,0.85094
1651,399,3.31937,-0.0253966,0.220127,0.848319
1661,389,3.3204,-0.0195124,0.218361,0.845399
1671,379,3.31987,-0.0188766,0.217754,0.843314
1681,369,3.32068,-0.0208287,0.215992,0.840371
1691,359,3.31999,-0.0188733,0.215379,0.837599
1701,349,3.32046,-0.0183474,0.214752,0.83536
1711,339,3.31988,-0.0234464,0.213755,0.83325
1721,329,3.32022,-0.0213412,0.212722,0.83064
1731,319,3.32079,-0.0167498,0.211351,0.828208
1741,309,3.32042,-0.0148452,0.21072,0.825368
1751,299,3.31858,-0.0227801,0.210706,0.822839
1761,289,3.31873,-0.0200229,0.209708,0.820629
1771,279,3.31913,-0.0180756,0.208697,0.81805
1781,269,3.31917,-0.0234744,0.207688,0.815766
1791,259,3.31916,-0.0215424,0.207057,0.812975
1801,249,3.31884,-0.0208177,0.206422,0.810908
1811,239,3.31966,-0.0168315,0.205011,0.808054
1821,229,3.31955,-0.022308,0.203995,0.80579
1831,219,3.3197,-0.0194622,0.202976,0.803569
1841,209,3.31746,-0.0215673,0.203345,0.801198
1851,199,3.31848,-0.0185647,0.201937,0.799229
1861,189,3.31828,-0.0219696,0.200907,0.796548
1871,179,3.31859,-0.0199362,0.199873,0.793951
1881,169,3.31801,-0.0170953,0.199217,0.791451
1891,159,3.31809,-0.0165983,0.198574,0.789304
1901,149,3.31945,-0.0240986,0.197159,0.786391
1911,139,3.31688,-0.0233202,0.197537,0.785333
1921,129,3.31737,-0.0275044,0.196119,0.78261
1931,119,3.31775,-0.0247668,0.195081,0.780289
1941,109,3.31778,-0.0240229,0.194418,0.778219
1951,99,3.31789,-0.0210488,0.193368,0.775972
1961,89,3.31604,-0.02019,0.19337,0.77381
1971,79,3.31574,-0.0282178,0.192704,0.771714
1981,69,3.31709,-0.0273532,0.191649,0.769873
1991,59,3.31775,-0.0199262,0.189845,0.767279
2001,49,3.31862,-0.0170306,0.188788,0.764959
2011,39,3.31639,-0.0206155,0.189534,0.763124
2021,29,3.31705,-0.0240696,0.187731,0.76095
2031,19,3.31784,-0.0211082,0.186675,0.758688
2041,9,3.31797,-0.0203794,0.185989,0.756607
2047,3,3.31668,-0.0198595,0.185988,0.755548