File: hust_correlation_analysis/matrices/HUST_6-2_cycle_feature_matrix.csv
cycle_number,rul,voltage,current,capacity,charge_capacity
1,1910,3.31973,0.0278973,0.286966,1.04202
10,1901,3.30612,-0.0200594,0.304491,1.01546
19,1892,3.3089,-0.0183997,0.30099,1.02322
28,1883,3.3121,-0.0168431,0.29804,1.02813
37,1874,3.31323,-0.017323,0.297223,1.03075
46,1865,3.31417,-0.016065,0.295967,1.03204
55,1856,3.31477,-0.0160845,0.295144,1.03246
64,1847,3.3146,-0.017372,0.295137,1.03174
73,1838,3.31454,-0.0179603,0.294729,1.03164
82,1829,3.31623,-0.0160816,0.293447,1.03081
91,1820,3.31598,-0.0166585,0.293438,1.03046
100,1811,3.31571,-0.0178678,0.293452,1.02984
109,1802,3.31721,-0.0153283,0.292154,1.0293
118,1793,3.3172,-0.0166593,0.292151,1.02857
127,1784,3.31636,-0.0179303,0.292569,1.02769
136,1775,3.31815,-0.0153552,0.291276,1.02718
145,1766,3.31679,-0.0167964,0.29209,1.02597
154,1757,3.31649,-0.0173005,0.292095,1.02572
163,1748,3.31801,-0.0154948,0.291212,1.0246
172,1739,3.31717,-0.0161891,0.29123,1.02427
181,1730,3.31622,-0.0174042,0.292044,1.02319
190,1721,3.31623,-0.0178818,0.292048,1.02295
199,1712,3.31719,-0.0155556,0.291155,1.02203
208,1703,3.31739,-0.0162253,0.291159,1.02168
217,1694,3.31631,-0.0175381,0.292359,1.02055
226,1685,3.316,-0.0181188,0.291988,1.02028
235,1676,3.31685,-0.0157101,0.291076,1.01936
244,1667,3.31643,-0.0157735,0.291479,1.01907
253,1658,3.3155,-0.0165501,0.291883,1.01841
262,1649,3.31573,-0.0170494,0.291876,1.01812
271,1640,3.31421,-0.0184852,0.292883,1.01697
280,1631,3.31607,-0.0165895,0.291419,1.01607
289,1622,3.3154,-0.0171588,0.291829,1.01555
298,1613,3.3152,-0.018493,0.291847,1.01489
307,1604,3.31669,-0.0159182,0.29095,1.0141
316,1595,3.3159,-0.0160786,0.290949,1.01402
325,1586,3.31559,-0.0170923,0.290955,1.01349
334,1577,3.31516,-0.0178915,0.291366,1.01284
343,1568,3.31702,-0.0159549,0.290075,1.01224
352,1559,3.31592,-0.0166159,0.290485,1.0114
361,1550,3.31472,-0.0173757,0.291325,1.01059
370,1541,3.31524,-0.0178604,0.290914,1.01058
379,1532,3.31626,-0.0159767,0.290026,1.00944
388,1523,3.31631,-0.0167173,0.290026,1.00904
397,1514,3.31565,-0.017943,0.290468,1.00827
406,1505,3.31522,-0.0185687,0.290867,1.00766
415,1496,3.31659,-0.0161285,0.289572,1.00705
424,1487,3.31602,-0.0166535,0.289585,1.00661
433,1478,3.31594,-0.0172833,0.290001,1.00627
442,1469,3.31553,-0.0179869,0.290003,1.0059
451,1460,3.31685,-0.0159871,0.289112,1.00481
460,1451,3.31618,-0.016125,0.289515,1.00446
469,1442,3.31534,-0.0169134,0.289942,1.00385
478,1433,3.31487,-0.0174681,0.290324,1.00356
487,1424,3.3142,-0.0182567,0.290777,1.00268
496,1415,3.31576,-0.0163127,0.289485,1.00184
505,1406,3.31476,-0.0170246,0.289892,1.00121
514,1397,3.31511,-0.0175351,0.289462,1.00114
523,1388,3.31442,-0.0189142,0.290345,1.00009
532,1379,3.3154,-0.0164314,0.289424,0.99915
541,1370,3.31495,-0.0170208,0.28942,0.998604
550,1361,3.31483,-0.0183028,0.289451,0.998256
559,1352,3.31393,-0.0183533,0.290359,0.99793
568,1343,3.31573,-0.0164567,0.288986,0.99685
577,1334,3.31516,-0.016954,0.288989,0.996606
586,1325,3.31473,-0.0184039,0.289417,0.995643
595,1316,3.31403,-0.01897,0.289418,0.995352
604,1307,3.31545,-0.0164094,0.288535,0.99456
613,1298,3.31472,-0.0177288,0.288966,0.993675
622,1289,3.31347,-0.0184718,0.289394,0.993066
631,1280,3.31502,-0.016659,0.288503,0.991854
640,1271,3.31514,-0.016594,0.28806,0.99206
649,1262,3.31507,-0.0180255,0.288495,0.991123
658,1253,3.31392,-0.0186305,0.288923,0.990592
667,1244,3.31304,-0.0192837,0.289867,0.990033
676,1235,3.31429,-0.0172958,0.288466,0.98892
685,1226,3.31414,-0.0179799,0.288465,0.98857
694,1217,3.31325,-0.0193876,0.288899,0.987631
703,1208,3.31474,-0.0174118,0.288011,0.986518
712,1199,3.31401,-0.0181389,0.288011,0.985916
721,1190,3.31321,-0.018818,0.288443,0.985562
730,1181,3.31275,-0.0194284,0.288419,0.985189
739,1172,3.31392,-0.0174467,0.287542,0.98408
748,1163,3.3138,-0.017995,0.28753,0.98358
757,1154,3.31265,-0.0194843,0.288418,0.982627
766,1145,3.31363,-0.0176566,0.287525,0.981406
775,1136,3.31337,-0.0180727,0.287519,0.981163
784,1127,3.31234,-0.0197368,0.287545,0.980114
793,1118,3.31384,-0.0170421,0.287051,0.979274
802,1109,3.31328,-0.0177311,0.287043,0.978903
811,1100,3.31228,-0.0197774,0.28795,0.977271
820,1091,3.31351,-0.0171461,0.2866,0.976843
829,1082,3.31318,-0.0185185,0.287046,0.97595
838,1073,3.31204,-0.0199572,0.287499,0.97505
847,1064,3.31366,-0.01777,0.286147,0.97417
856,1055,3.3129,-0.0192745,0.287041,0.973003
865,1046,3.31422,-0.0171168,0.2857,0.972138
874,1037,3.31317,-0.0178637,0.28614,0.971521
883,1028,3.31228,-0.0193533,0.286585,0.970546
892,1019,3.31341,-0.0172838,0.285684,0.969404
901,1010,3.31279,-0.0179557,0.285684,0.969065
910,1001,3.31184,-0.0196224,0.286566,0.968008
919,992,3.31234,-0.0175184,0.285683,0.966668
928,983,3.3111,-0.0189329,0.286128,0.965748
937,974,3.31119,-0.0203482,0.286583,0.964836
946,965,3.31181,-0.0188295,0.285684,0.963417
955,956,3.31053,-0.0196937,0.286131,0.962763
964,947,3.31164,-0.0176712,0.285217,0.961529
973,938,3.31139,-0.0197409,0.285691,0.960352
982,929,3.31187,-0.0177331,0.284782,0.959132
991,920,3.3107,-0.0191838,0.285685,0.956572
1000,911,3.30963,-0.0206681,0.286152,0.957012
1009,902,3.31123,-0.0185642,0.284792,0.956098
1018,893,3.31003,-0.0207351,0.285717,0.954606
1027,884,3.31055,-0.018732,0.284823,0.953419
1036,875,3.30932,-0.0202061,0.285275,0.952459
1045,866,3.31047,-0.0187224,0.284363,0.95095
1054,857,3.30937,-0.0208848,0.284843,0.949732
1063,848,3.31014,-0.0188908,0.284383,0.948218
1072,839,3.30908,-0.0203696,0.284378,0.947489
1081,830,3.30979,-0.019092,0.283943,0.945676
1090,821,3.30835,-0.0205445,0.284405,0.944749
1099,812,3.30951,-0.018374,0.283484,0.943544
1108,803,3.30751,-0.0213929,0.284439,0.941695
1117,794,3.30907,-0.0192879,0.283527,0.940488
1126,785,3.30768,-0.0215063,0.283994,0.939187
1135,776,3.30817,-0.0201796,0.283567,0.937399
1144,767,3.30914,-0.0242264,0.282178,0.935771
1153,758,3.30737,-0.0191764,0.283128,0.934174
1162,749,3.30811,-0.0214383,0.281733,0.932155
1171,740,3.30711,-0.0228235,0.281731,0.9315
1180,731,3.30708,-0.0203424,0.281297,0.928986
1189,722,3.30843,-0.0218815,0.279423,0.927523
1198,713,3.30755,-0.0192165,0.278474,0.925503
1207,704,3.30735,-0.0251599,0.278028,0.9238
1216,695,3.30652,-0.0236699,0.27755,0.922215
1225,686,3.30635,-0.0211426,0.277113,0.919749
1234,677,3.308,-0.0232739,0.274774,0.918216
1243,668,3.30701,-0.0255539,0.275239,0.916942
1252,659,3.30721,-0.0222237,0.274319,0.915034
1261,650,3.30778,-0.0178003,0.272924,0.911305
1270,641,3.30864,-0.016371,0.272,0.911015
1279,632,3.30755,-0.0211388,0.27138,0.908814
1288,623,3.30758,-0.0179426,0.270972,0.906797
1297,614,3.3084,-0.0164082,0.269667,0.905272
1306,605,3.30646,-0.0252685,0.270125,0.903255
1315,596,3.30691,-0.0226643,0.269212,0.901027
1324,587,3.30816,-0.0248462,0.26734,0.899257
1333,578,3.30573,-0.0197052,0.268261,0.897615
1342,569,3.30617,-0.0247311,0.26733,0.895382
1351,560,3.30681,-0.0182327,0.265469,0.893053
1360,551,3.30734,-0.0224445,0.264059,0.891141
1369,542,3.30556,-0.0256701,0.264979,0.889249
1378,533,3.30611,-0.019094,0.263136,0.886719
1387,524,3.3058,-0.0224505,0.263597,0.884859
1396,515,3.30649,-0.0247621,0.261714,0.883025
1405,506,3.30541,-0.0283966,0.260799,0.88038
1414,497,3.30586,-0.0237994,0.259326,0.87793
1423,488,3.30507,-0.0232421,0.259384,0.875537
1432,479,3.30651,-0.0263281,0.257519,0.873419
1441,470,3.3073,-0.0216215,0.256645,0.871022
1450,461,3.30422,-0.0282864,0.258491,0.86975
1459,452,3.30553,-0.0212772,0.255635,0.867482
1468,443,3.30573,-0.0245791,0.254243,0.865076
1477,434,3.30722,-0.0263322,0.251922,0.862477
1486,425,3.30646,-0.0257851,0.251882,0.860075
1495,416,3.30527,-0.0282613,0.252343,0.859074
1504,407,3.30555,-0.0241584,0.250926,0.856095
1513,398,3.30605,-0.0208055,0.249973,0.854062
1522,389,3.30589,-0.0201761,0.249478,0.851893
1531,380,3.30637,-0.0234504,0.248073,0.849512
1540,371,3.3041,-0.0247179,0.248523,0.84749
1549,362,3.30471,-0.0198065,0.247106,0.845057
1558,353,3.30424,-0.0200293,0.247074,0.842338
1567,344,3.30519,-0.0232327,0.245214,0.840257
1576,335,3.30565,-0.0205103,0.244595,0.837913
1585,326,3.30561,-0.0215473,0.242373,0.83539
1594,317,3.30358,-0.0271109,0.243282,0.83394
1603,308,3.30372,-0.0230715,0.242323,0.830919
1612,299,3.3039,-0.0258232,0.242623,0.82967
1621,290,3.30358,-0.0279592,0.24085,0.826493
1630,281,3.30425,-0.0188326,0.240345,0.82437
1639,272,3.30508,-0.0261795,0.237588,0.821937
1648,263,3.30167,-0.030658,0.239042,0.819488
1657,254,3.3031,-0.0213428,0.236575,0.816669
1666,245,3.30353,-0.0274549,0.235193,0.814454
1675,236,3.30253,-0.0270922,0.235089,0.81198
1684,227,3.30361,-0.0240668,0.233662,0.809984
1693,218,3.3028,-0.0283985,0.232687,0.806993
1702,209,3.30418,-0.0254522,0.231259,0.804971
1711,200,3.30463,-0.0204603,0.229832,0.802478
1720,191,3.30217,-0.0310226,0.230283,0.800273
1729,182,3.30183,-0.0282242,0.229627,0.797927
1738,173,3.30207,-0.0275576,0.228761,0.79579
1747,164,3.30236,-0.0254818,0.22778,0.793182
1756,155,3.30302,-0.028767,0.226314,0.790764
1765,146,3.3026,-0.0227354,0.225405,0.787438
1774,137,3.30338,-0.0193964,0.223467,0.785524
1783,128,3.30297,-0.0198137,0.22337,0.782726
1792,119,3.3006,-0.029818,0.223368,0.781092
1801,110,3.30087,-0.031937,0.221484,0.778174
1810,101,3.30151,-0.0313456,0.220938,0.776047
1819,92,3.30126,-0.0291821,0.219939,0.773444
1828,83,3.30199,-0.0216232,0.218054,0.770785
1837,74,3.30293,-0.0259274,0.216177,0.768357
1846,65,3.30209,-0.0217478,0.215614,0.764972
1855,56,3.30189,-0.0232443,0.215046,0.763281
1864,47,3.30218,-0.0301114,0.214042,0.760734
1873,38,3.30241,-0.0223074,0.212152,0.758086
1882,29,3.30266,-0.0201722,0.211144,0.755461
1891,20,3.30265,-0.0193636,0.210571,0.753378
1900,11,3.29965,-0.0309202,0.211004,0.751068
1908,3,3.30112,-0.0244266,0.209597,0.749188