File: hust_correlation_analysis/matrices/HUST_3-1_cycle_feature_matrix.csv
cycle_number,rul,voltage,current,capacity,charge_capacity
1,1940,3.31681,0.0187376,0.293916,1.03015
10,1931,3.30471,-0.0198434,0.307105,1.0115
19,1922,3.30845,-0.0188421,0.303914,1.01881
28,1913,3.31088,-0.0166735,0.301264,1.02131
37,1904,3.31145,-0.0184937,0.300378,1.02331
46,1895,3.31211,-0.019078,0.299497,1.0234
55,1886,3.31331,-0.0175341,0.298169,1.02356
64,1877,3.31428,-0.0171776,0.297311,1.02294
73,1868,3.31339,-0.0201255,0.298152,1.02222
82,1859,3.31478,-0.0165878,0.296418,1.02117
91,1850,3.31465,-0.0188215,0.296835,1.02104
100,1841,3.31384,-0.0202027,0.297264,1.02011
109,1832,3.31481,-0.0166174,0.295947,1.01883
118,1823,3.31473,-0.0178838,0.296366,1.01792
127,1814,3.31383,-0.0186799,0.2968,1.01731
136,1805,3.31474,-0.0168141,0.295907,1.01618
145,1796,3.31415,-0.0190607,0.296758,1.01582
154,1787,3.31338,-0.0186943,0.296773,1.01478
163,1778,3.31522,-0.0161286,0.29544,1.0142
172,1769,3.31413,-0.0174738,0.29631,1.01307
181,1760,3.31312,-0.0181208,0.296752,1.01255
190,1751,3.31311,-0.0193812,0.29719,1.01169
199,1742,3.31436,-0.0168606,0.295851,1.01106
208,1733,3.31304,-0.0175985,0.296702,1.01018
217,1724,3.31281,-0.0189672,0.297157,1.00932
226,1715,3.31155,-0.0196951,0.297994,1.00873
235,1706,3.31368,-0.0170392,0.29626,1.00819
244,1697,3.31293,-0.0177193,0.296676,1.00754
253,1688,3.31181,-0.020208,0.297535,1.00702
262,1679,3.31133,-0.0209294,0.297971,1.00642
271,1670,3.31123,-0.0214735,0.297528,1.00636
280,1661,3.31229,-0.0196779,0.297179,1.00497
289,1652,3.31227,-0.020174,0.297082,1.00473
298,1643,3.31119,-0.0211191,0.297521,1.00401
307,1634,3.31287,-0.0183102,0.296192,1.00357
316,1625,3.31279,-0.0189185,0.296182,1.00324
325,1616,3.31169,-0.0196162,0.296616,1.00262
334,1607,3.3117,-0.0209651,0.297082,1.0018
343,1598,3.31076,-0.021733,0.297522,1.00118
352,1589,3.31235,-0.019049,0.296168,1.00059
361,1580,3.31186,-0.018756,0.296631,0.999309
370,1571,3.31111,-0.0187958,0.296623,0.999256
379,1562,3.3106,-0.0211422,0.297067,0.999125
388,1553,3.31247,-0.0173614,0.295733,0.997879
397,1544,3.31145,-0.0180918,0.296181,0.997289
406,1535,3.31166,-0.0187492,0.296184,0.997125
415,1526,3.31086,-0.019452,0.29664,0.996441
424,1517,3.30995,-0.0200877,0.29708,0.995865
433,1508,3.31201,-0.017457,0.295733,0.995275
442,1499,3.31132,-0.0188304,0.296209,0.994426
451,1490,3.31042,-0.0195378,0.296652,0.993845
460,1481,3.31009,-0.0203193,0.297102,0.993239
469,1472,3.31139,-0.0175409,0.295756,0.992714
478,1463,3.31087,-0.01835,0.296178,0.992012
487,1454,3.3106,-0.0189077,0.296179,0.991747
496,1445,3.30971,-0.0197243,0.296627,0.991088
505,1436,3.30972,-0.0203755,0.296621,0.990756
514,1427,3.3108,-0.0178232,0.295724,0.989897
523,1418,3.31053,-0.0183106,0.295726,0.989664
532,1409,3.30995,-0.0191627,0.296172,0.988987
541,1400,3.30917,-0.0205639,0.296649,0.988139
550,1391,3.31087,-0.017753,0.295281,0.987587
559,1382,3.31055,-0.0184912,0.295722,0.986941
568,1373,3.30955,-0.0192972,0.296198,0.986382
577,1364,3.30949,-0.0198836,0.296196,0.9861
586,1355,3.30846,-0.0206388,0.296649,0.98548
595,1346,3.30992,-0.0186223,0.295776,0.984399
604,1337,3.3097,-0.0192066,0.295778,0.984133
613,1328,3.30893,-0.0199996,0.296239,0.983515
622,1319,3.30933,-0.0180555,0.295896,0.982112
631,1310,3.30952,-0.0186532,0.29581,0.981843
640,1301,3.30903,-0.0194214,0.295809,0.981476
649,1292,3.30847,-0.0208204,0.296272,0.980568
658,1283,3.30992,-0.0181226,0.295358,0.979692
667,1274,3.30926,-0.0188496,0.295351,0.979323
676,1265,3.30811,-0.0196102,0.295814,0.978724
685,1256,3.3079,-0.0209824,0.296283,0.977844
694,1247,3.3092,-0.0182104,0.2949,0.977231
703,1238,3.3085,-0.0189027,0.295371,0.976683
712,1229,3.308,-0.0203424,0.295937,0.975785
721,1220,3.30741,-0.021058,0.29584,0.975425
730,1211,3.30841,-0.0190121,0.294936,0.974519
739,1202,3.30845,-0.0203737,0.295417,0.973433
748,1193,3.30688,-0.021223,0.295886,0.972791
757,1184,3.3084,-0.0184367,0.294473,0.97209
766,1175,3.30818,-0.019978,0.294958,0.969755
775,1166,3.30686,-0.0206535,0.295431,0.97063
784,1157,3.30815,-0.018681,0.294505,0.969339
793,1148,3.30796,-0.0192688,0.294608,0.969118
802,1139,3.30711,-0.0206861,0.295004,0.968257
811,1130,3.30806,-0.0185459,0.294074,0.966835
820,1121,3.3079,-0.0192435,0.294233,0.966716
829,1112,3.30721,-0.0207531,0.294542,0.965759
838,1103,3.30574,-0.0215885,0.295003,0.965087
847,1094,3.30804,-0.0193274,0.293651,0.964344
856,1085,3.3066,-0.020971,0.294591,0.963048
865,1076,3.30786,-0.018083,0.293342,0.9624
874,1067,3.30759,-0.0201922,0.293692,0.961295
883,1058,3.30642,-0.0209746,0.29417,0.960675
892,1049,3.30752,-0.018901,0.293246,0.959436
901,1040,3.30656,-0.0203423,0.293741,0.958579
910,1031,3.30621,-0.021804,0.294228,0.957686
919,1022,3.30673,-0.0190757,0.293301,0.956732
928,1013,3.30574,-0.0205644,0.293784,0.955806
937,1004,3.30548,-0.0219476,0.293789,0.955184
946,995,3.30662,-0.0198805,0.292852,0.953899
955,986,3.30522,-0.0206685,0.293481,0.953253
964,977,3.3068,-0.0186088,0.292431,0.952088
973,968,3.30583,-0.0199707,0.292907,0.951195
982,959,3.3047,-0.0214307,0.293383,0.950264
991,950,3.30604,-0.0192789,0.292502,0.949168
1000,941,3.30507,-0.0208945,0.292987,0.948165
1009,932,3.30388,-0.02251,0.294118,0.947155
1018,923,3.30515,-0.0201474,0.292564,0.94609
1027,914,3.30442,-0.0217939,0.293052,0.945079
1036,905,3.30533,-0.0197021,0.292124,0.943807
1045,896,3.30423,-0.0211995,0.292619,0.94289
1054,887,3.30378,-0.0225843,0.292628,0.942289
1063,878,3.30498,-0.0203404,0.291709,0.941111
1072,869,3.30368,-0.0219553,0.292218,0.940178
1081,860,3.305,-0.0196951,0.291295,0.937594
1090,851,3.30408,-0.0212843,0.291787,0.938013
1099,842,3.30511,-0.0191917,0.290865,0.936746
1108,833,3.30358,-0.0214207,0.291892,0.935345
1117,824,3.30312,-0.022918,0.291869,0.934611
1126,815,3.30368,-0.0208221,0.291442,0.933049
1135,806,3.30241,-0.022496,0.292036,0.932073
1144,797,3.30388,-0.0201153,0.290507,0.931126
1153,788,3.30308,-0.0217762,0.291005,0.930123
1162,779,3.30416,-0.0194532,0.290093,0.92897
1171,770,3.30249,-0.0218399,0.29113,0.927298
1180,761,3.30143,-0.0235295,0.291793,0.926458
1189,752,3.30266,-0.0212687,0.290698,0.9252
1198,743,3.30143,-0.0235991,0.291228,0.923988
1207,734,3.30228,-0.0212543,0.290293,0.922768
1216,725,3.30113,-0.0229748,0.290807,0.921772
1225,716,3.30259,-0.0213996,0.289884,0.920235
1234,707,3.30103,-0.0231057,0.290405,0.919249
1243,698,3.30146,-0.0208148,0.289996,0.917759
1252,689,3.30032,-0.023333,0.290525,0.916441
1261,680,3.30168,-0.0208653,0.289601,0.915287
1270,671,3.30022,-0.0233307,0.290125,0.913978
1279,662,3.3006,-0.0211109,0.289718,0.912422
1288,653,3.2994,-0.0235261,0.290266,0.9112
1297,644,3.30083,-0.0219812,0.28933,0.909607
1306,635,3.29954,-0.0235486,0.289861,0.908689
1315,626,3.29994,-0.0221416,0.289461,0.906776
1324,617,3.29836,-0.0245433,0.290006,0.905533
1333,608,3.29945,-0.0222413,0.289065,0.90424
1342,599,3.29827,-0.0247198,0.289603,0.902941
1351,590,3.29867,-0.0231857,0.289196,0.901033
1360,581,3.29981,-0.0217326,0.288264,0.899381
1369,572,3.29806,-0.0234505,0.288798,0.898392
1378,563,3.29846,-0.0219752,0.288405,0.89647
1387,554,3.29707,-0.024379,0.288969,0.895277
1396,545,3.29829,-0.0227125,0.288017,0.893656
1405,536,3.29612,-0.0254433,0.289104,0.891976
1414,527,3.29659,-0.0239546,0.28871,0.890023
1423,518,3.2976,-0.022377,0.288201,0.888444
1432,509,3.29573,-0.0249114,0.288327,0.887102
1441,500,3.29597,-0.0234094,0.287935,0.885126
1450,491,3.29634,-0.0227172,0.287562,0.882869
1459,482,3.29477,-0.0253251,0.288138,0.881593
1468,473,3.29501,-0.0245922,0.287913,0.87931
1477,464,3.29587,-0.0228962,0.286804,0.877665
1486,455,3.29348,-0.0264887,0.287972,0.875765
1495,446,3.29387,-0.0257572,0.287607,0.873499
1504,437,3.29473,-0.0240158,0.286658,0.871868
1513,428,3.29488,-0.0233082,0.286289,0.869557
1522,419,3.29239,-0.0269034,0.287467,0.867646
1531,410,3.29292,-0.0238848,0.286519,0.865348
1540,401,3.29269,-0.0322253,0.286154,0.863038
1549,392,3.29312,-0.0269024,0.284608,0.860682
1558,383,3.29442,-0.0213528,0.282499,0.858975
1567,374,3.29404,-0.0296468,0.282116,0.85647
1576,365,3.29236,-0.0273108,0.281525,0.85409
1585,356,3.29236,-0.0242852,0.28056,0.851748
1594,347,3.29283,-0.0289415,0.279052,0.849204
1603,338,3.29351,-0.0247847,0.277455,0.847411
1612,329,3.29376,-0.0225777,0.276483,0.844727
1621,320,3.29359,-0.0288165,0.275514,0.842382
1630,311,3.29434,-0.0241062,0.273969,0.839783
1639,302,3.29391,-0.0302611,0.272993,0.837494
1648,293,3.29161,-0.0302823,0.272977,0.835092
1657,284,3.29169,-0.0258167,0.271996,0.832078
1666,275,3.29216,-0.0318483,0.270461,0.83018
1675,266,3.2915,-0.0297394,0.270068,0.827227
1684,257,3.29192,-0.0251414,0.2685,0.824493
1693,248,3.29158,-0.0322844,0.267523,0.821903
1702,239,3.29145,-0.0291872,0.266539,0.819545
1711,230,3.29128,-0.0340909,0.264973,0.816866
1720,221,3.29155,-0.0292815,0.263396,0.814415
1729,212,3.29157,-0.0269587,0.262402,0.811526
1738,203,3.29144,-0.0318255,0.260811,0.808822
1747,194,3.29099,-0.0272697,0.259821,0.805793
1756,185,3.29075,-0.034686,0.258842,0.803217
1765,176,3.29084,-0.0323827,0.257845,0.800564
1774,167,3.29164,-0.0258722,0.255694,0.797548
1783,158,3.29071,-0.0335441,0.255274,0.794622
1792,149,3.29098,-0.0286006,0.25369,0.791949
1801,140,3.29062,-0.0361348,0.25268,0.789319
1810,131,3.29076,-0.0311983,0.251234,0.786652
1819,122,3.29066,-0.028842,0.250092,0.784008
1828,113,3.28937,-0.0366028,0.250021,0.781076
1837,104,3.28874,-0.0353786,0.249204,0.777756
1846,95,3.28951,-0.0277406,0.24717,0.775052
1855,86,3.29206,-0.0304905,0.244426,0.772079
1864,77,3.29205,-0.0254399,0.242799,0.769296
1873,68,3.29171,-0.0333096,0.241787,0.766698
1882,59,3.29181,-0.0281797,0.240186,0.764014
1891,50,3.29207,-0.0228138,0.23856,0.76135
1900,41,3.29097,-0.0321316,0.238106,0.758015
1909,32,3.29176,-0.0242318,0.235949,0.755345
1918,23,3.29066,-0.0348635,0.235459,0.75297
1927,14,3.29001,-0.0297874,0.234399,0.749693
1936,5,3.29056,-0.0255925,0.232801,0.746704
1938,3,3.28901,-0.0373783,0.233481,0.746069