File: hust_correlation_analysis/matrices/HUST_8-1_cycle_feature_matrix.csv
cycle_number,rul,voltage,current,capacity,charge_capacity
1,1310,3.31701,-0.00261003,0.304316,1.0208
7,1304,3.30163,-0.0071882,0.313454,1.01394
13,1298,3.30366,-0.00531428,0.312063,1.01302
19,1292,3.30409,-0.00659679,0.311624,1.01251
25,1286,3.30591,-0.00473969,0.310399,1.0116
31,1280,3.30601,-0.00538827,0.310049,1.01146
37,1274,3.30578,-0.0060244,0.309959,1.01111
43,1268,3.30504,-0.00677796,0.310391,1.01048
49,1262,3.30456,-0.00737053,0.310391,1.01015
55,1256,3.3062,-0.00495194,0.309164,1.00954
61,1250,3.30598,-0.00557607,0.309165,1.00919
67,1244,3.30529,-0.00633448,0.309605,1.00858
73,1238,3.3056,-0.00675188,0.309163,1.00852
79,1232,3.30524,-0.00738005,0.30916,1.00817
85,1226,3.30702,-0.00487535,0.307928,1.0076
91,1220,3.30665,-0.0056076,0.308366,1.007
97,1214,3.30639,-0.00617968,0.308364,1.00669
103,1208,3.30642,-0.00681378,0.308362,1.00633
109,1202,3.30688,-0.00736868,0.307926,1.00622
115,1196,3.30641,-0.00736454,0.307924,1.00621
121,1190,3.30767,-0.00493975,0.307128,1.0054
127,1184,3.3078,-0.00543181,0.306695,1.00532
133,1178,3.30724,-0.00614309,0.307129,1.00473
139,1172,3.30683,-0.00619638,0.307133,1.00472
145,1166,3.30653,-0.00679198,0.30713,1.00436
151,1160,3.30592,-0.00745562,0.307565,1.00378
157,1154,3.30782,-0.00480382,0.306342,1.00331
163,1148,3.30799,-0.00482484,0.306119,1.00349
169,1142,3.30777,-0.00549808,0.306333,1.00292
175,1136,3.30791,-0.0059977,0.306338,1.00262
181,1130,3.30763,-0.00671653,0.306343,1.00224
187,1124,3.30711,-0.00671377,0.306341,1.00224
193,1118,3.30729,-0.00738735,0.306338,1.00185
199,1112,3.30695,-0.0073776,0.306335,1.00187
205,1106,3.30884,-0.00480547,0.305106,1.0013
211,1100,3.30855,-0.00492674,0.305112,1.00127
217,1094,3.30871,-0.00548385,0.305108,1.00095
223,1088,3.30843,-0.00611814,0.305109,1.00058
229,1082,3.30821,-0.00624869,0.305259,1.00052
235,1076,3.30787,-0.00690306,0.305762,0.999967
241,1070,3.30757,-0.00696022,0.305541,0.999916
247,1064,3.30741,-0.00704685,0.305535,0.99984
253,1058,3.30722,-0.00757755,0.305537,0.99955
259,1052,3.30736,-0.00755631,0.305103,0.999757
265,1046,3.30883,-0.00507958,0.304309,0.998962
271,1040,3.30873,-0.00565295,0.304302,0.998629
277,1034,3.30854,-0.00566753,0.304305,0.998633
283,1028,3.30845,-0.00634418,0.304305,0.998243
289,1022,3.30841,-0.00696319,0.304305,0.997903
295,1016,3.30816,-0.00760991,0.304305,0.997542
301,1010,3.30992,-0.00495663,0.303075,0.997036
307,1004,3.31017,-0.00499145,0.302641,0.997205
313,998,3.30975,-0.0056439,0.303078,0.996642
319,992,3.309468,-0.00628506,0.303157,0.996278
325,986,3.3093,-0.00622897,0.303068,0.996325
331,980,3.30892,-0.00685054,0.302948,0.995964
337,974,3.30878,-0.00743442,0.303072,0.995626
343,968,3.31041,-0.00490188,0.301849,0.995059
349,962,3.31017,-0.00553915,0.301931,0.994705
355,956,3.3098,-0.005555,0.301851,0.994977
361,950,3.30978,-0.00627858,0.301847,0.994288
367,944,3.30884,-0.00692399,0.302278,0.993739
373,938,3.30909,-0.0074521,0.301844,0.993627
379,932,3.31057,-0.00497704,0.301052,0.992826
385,926,3.31067,-0.00490671,0.300621,0.993076
391,920,3.31058,-0.00555526,0.300623,0.992697
397,914,3.30995,-0.006185,0.301047,0.992135
403,908,3.30983,-0.00684784,0.301265,0.991774
409,902,3.31033,-0.00742792,0.30062,0.991611
415,896,3.31153,-0.00501037,0.299826,0.990787
421,890,3.31145,-0.00557481,0.299826,0.990485
427,884,3.31144,-0.0061522,0.299823,0.990152
433,878,3.31133,-0.00607452,0.299391,0.990372
439,872,3.31118,-0.00673869,0.299194,0.989989
445,866,3.31298,-0.00427608,0.298167,0.989381
451,860,3.31226,-0.0049323,0.298604,0.988844
457,854,3.31222,-0.00552842,0.298745,0.988506
463,848,3.31185,-0.00562983,0.298606,0.98845
469,842,3.31153,-0.00626394,0.298602,0.98808
475,836,3.3114,-0.00682459,0.298598,0.987756
481,830,3.31095,-0.00750159,0.298591,0.987354
487,824,3.31257,-0.00505895,0.297371,0.986719
493,818,3.31234,-0.00558885,0.297374,0.986425
499,812,3.31198,-0.0062778,0.297373,0.986044
505,806,3.31118,-0.00687081,0.29801,0.985507
511,800,3.31096,-0.00754433,0.297807,0.985139
517,794,3.31249,-0.00485874,0.296574,0.984618
523,788,3.31219,-0.00555852,0.296576,0.98428
529,782,3.31165,-0.00621189,0.296996,0.983641
535,776,3.3115,-0.00694741,0.297002,0.983225
541,770,3.31312,-0.00440679,0.295772,0.982644
547,764,3.3131,-0.00553595,0.295856,0.982025
553,758,3.31221,-0.0063501,0.296208,0.981367
559,752,3.31244,-0.00692768,0.295774,0.981207
565,746,3.31395,-0.00435445,0.29498,0.980462
571,740,3.31354,-0.0055769,0.294983,0.979769
577,734,3.31323,-0.00614821,0.294984,0.979454
583,728,3.31274,-0.00685982,0.294982,0.979037
589,722,3.31365,-0.00428404,0.294181,0.97825
595,716,3.31353,-0.00559789,0.294185,0.97753
601,710,3.3128,-0.0061255,0.294185,0.977218
607,704,3.31156,-0.00749232,0.295042,0.976077
613,698,3.31358,-0.00487381,0.293377,0.975703
619,692,3.31282,-0.00565353,0.293817,0.975071
625,686,3.31259,-0.00689313,0.293812,0.974351
631,680,3.31248,-0.00753719,0.293815,0.973999
637,674,3.31384,-0.00575727,0.293015,0.972769
643,668,3.31341,-0.00627867,0.293022,0.972493
649,662,3.31304,-0.00754478,0.293019,0.971756
655,656,3.31426,-0.00504316,0.291796,0.971109
661,650,3.31348,-0.00635349,0.292218,0.970179
667,644,3.31235,-0.00706493,0.29265,0.96961
673,638,3.3135,-0.00505385,0.291422,0.968671
679,632,3.31294,-0.00631765,0.292282,0.967568
685,626,3.31251,-0.00702796,0.29242,0.967169
691,620,3.31404,-0.00509275,0.291055,0.966227
697,614,3.31374,-0.00634244,0.291046,0.965485
703,608,3.31281,-0.00772783,0.291482,0.964523
709,602,3.31436,-0.00563724,0.290252,0.96364
715,596,3.3132,-0.00633653,0.290257,0.963247
721,590,3.31185,-0.00777523,0.291119,0.962074
727,584,3.31352,-0.00568252,0.289891,0.961177
733,578,3.31254,-0.00709915,0.29032,0.960198
739,572,3.31439,-0.00514227,0.289098,0.959239
745,566,3.31337,-0.00637521,0.289517,0.958322
751,560,3.31456,-0.00441741,0.288289,0.95734
757,554,3.31358,-0.00588553,0.288866,0.956241
763,548,3.31264,-0.00720093,0.289158,0.9554
769,542,3.31413,-0.0100399,0.287486,0.954399
775,536,3.31367,-0.0104631,0.287485,0.952886
781,530,3.31509,-0.00674929,0.285822,0.951797
787,524,3.31386,-0.0081649,0.286249,0.950807
793,518,3.31263,-0.00957184,0.287112,0.949819
799,512,3.31368,-0.0114502,0.285019,0.948112
805,506,3.31494,-0.00787061,0.283788,0.946763
811,500,3.3151,-0.00649004,0.282922,0.945348
817,494,3.31616,-0.0028191,0.281701,0.944066
823,488,3.31461,-0.011514,0.282125,0.94276
829,482,3.31568,-0.00945741,0.281103,0.941832
835,476,3.31481,-0.00647053,0.28047,0.93987
841,470,3.31608,-0.00342049,0.279247,0.938222
847,464,3.31559,-0.00476911,0.279237,0.937448
853,458,3.31627,-0.0084402,0.278025,0.935816
859,452,3.31543,-0.00809799,0.278024,0.934725
865,446,3.31544,-0.00691448,0.277636,0.932941
871,440,3.31456,-0.00545028,0.277212,0.931221
877,434,3.3155,-0.010865,0.276408,0.929859
883,428,3.31513,-0.00784995,0.275574,0.928103
889,422,3.31605,-0.0114706,0.27393,0.926635
895,416,3.31696,-0.00960101,0.27313,0.925436
901,410,3.31604,-0.00993781,0.273127,0.923957
907,404,3.316,-0.00697805,0.272328,0.922081
913,398,3.31516,-0.00545249,0.271899,0.92055
919,392,3.31607,-0.0116072,0.271101,0.918636
925,386,3.31715,-0.00689206,0.269884,0.916616
931,380,3.31563,-0.00718444,0.26988,0.915181
937,374,3.31651,-0.0041349,0.268657,0.913515
943,368,3.31646,-0.00858934,0.267862,0.91129
949,362,3.31574,-0.00730275,0.26744,0.909839
955,356,3.31719,-0.0109097,0.265815,0.90816
961,350,3.31783,-0.00690542,0.264604,0.905739
967,344,3.31604,-0.0089184,0.265008,0.904426
973,338,3.3161,-0.0076593,0.264615,0.902734
979,332,3.31683,-0.0103543,0.263395,0.900365
985,326,3.31577,-0.00953002,0.262983,0.898409
991,320,3.31684,-0.00709274,0.261766,0.896388
997,314,3.31647,-0.00412346,0.260961,0.894471
1003,308,3.31733,-0.0068554,0.259691,0.892093
1009,302,3.31856,-0.00274896,0.25814,0.88986
1015,296,3.31655,-0.0106453,0.258536,0.887852
1021,290,3.31594,-0.0100167,0.258187,0.885797
1027,284,3.31655,-0.00514856,0.256926,0.883785
1033,278,3.31787,-0.0086653,0.255309,0.881158
1039,272,3.31696,-0.00792268,0.254911,0.879171
1045,266,3.31606,-0.00661285,0.254907,0.877289
1051,260,3.31624,-0.0101068,0.253697,0.874523
1057,254,3.31708,-0.00591397,0.252484,0.8721
1063,248,3.3172,-0.00526351,0.251672,0.870205
1069,242,3.31709,-0.00803431,0.25086,0.867655
1075,236,3.31695,-0.00737396,0.25006,0.865977
1081,230,3.31572,-0.00676246,0.250165,0.863517
1087,224,3.3154,-0.0103034,0.249234,0.860547
1093,218,3.31705,-0.0049069,0.24723,0.857804
1099,212,3.3165,-0.00425088,0.247006,0.855746
1105,206,3.31622,-0.00888451,0.246411,0.853363
1111,200,3.31699,-0.00538313,0.245199,0.850525
1117,194,3.31671,-0.00287418,0.24439,0.848305
1123,188,3.31809,-0.00453729,0.242344,0.845559
1129,182,3.31476,-0.00756643,0.243577,0.843504
1135,176,3.31465,-0.0111406,0.242755,0.840551
1141,170,3.31564,-0.00934254,0.241544,0.838136
1147,164,3.31522,-0.006781,0.240737,0.83594
1153,158,3.31586,-0.0104424,0.239528,0.833138
1159,152,3.3155,-0.00680972,0.238713,0.830169
1165,146,3.31616,-0.0115763,0.237506,0.828133
1171,140,3.31524,-0.00975074,0.237087,0.82538
1177,134,3.3162,-0.0116066,0.235481,0.822379
1183,128,3.3153,-0.0109304,0.235064,0.820352
1189,122,3.31641,-0.00540039,0.233456,0.817332
1195,116,3.31548,-0.0033226,0.233037,0.814684
1201,110,3.3162,-0.00736491,0.231829,0.811744
1207,104,3.31533,-0.0054589,0.231409,0.808992
1213,98,3.31681,-0.00837188,0.229422,0.806954
1219,92,3.31538,-0.00478397,0.229381,0.803557
1225,86,3.31408,-0.00662003,0.229377,0.801375
1231,80,3.31413,-0.00965296,0.228172,0.798929
1237,74,3.31431,-0.00759783,0.227366,0.796604
1243,68,3.31464,-0.0115108,0.226161,0.793565
1249,62,3.31396,-0.00764506,0.225322,0.790627
1255,56,3.31425,-0.00704801,0.224511,0.788734
1261,50,3.31495,-0.00891434,0.222917,0.785737
1267,44,3.31439,-0.00506056,0.2221,0.782774
1273,38,3.31465,-0.00437695,0.221279,0.780894
1279,32,3.31526,-0.00823634,0.220083,0.778119
1285,26,3.31485,-0.00369818,0.219427,0.775428
1291,20,3.31435,-0.0114748,0.218816,0.77307
1297,14,3.31552,-0.00361471,0.216845,0.76983
1303,8,3.31592,-0.00873821,0.215645,0.767745
1308,3,3.31275,-0.011903,0.216787,0.765776