File: hust_correlation_analysis/matrices/HUST_5-5_cycle_feature_matrix.csv
cycle_number,rul,voltage,current,capacity,charge_capacity
1,1585,3.31385,0.0314574,0.290498,1.03772
9,1577,3.30324,-0.0175892,0.306812,1.00855
17,1569,3.30868,-0.0128459,0.301926,1.01603
25,1561,3.30899,-0.0150451,0.301064,1.02043
33,1553,3.31132,-0.0131616,0.298459,1.0225
41,1545,3.31064,-0.0155917,0.298957,1.0237
49,1537,3.31177,-0.0148151,0.297708,1.02474
57,1529,3.31321,-0.0124645,0.296439,1.02415
65,1521,3.31407,-0.0124163,0.295617,1.02458
73,1513,3.31308,-0.0137812,0.296026,1.02362
81,1505,3.31289,-0.0148428,0.295321,1.02325
89,1497,3.31476,-0.0124307,0.294352,1.02267
97,1489,3.31401,-0.0137206,0.294758,1.02175
105,1481,3.31414,-0.0148243,0.294069,1.02159
113,1473,3.31522,-0.0124547,0.293488,1.02051
121,1465,3.31483,-0.0136689,0.2939,1.01965
129,1457,3.31475,-0.0143216,0.2939,1.01929
137,1449,3.31555,-0.0125839,0.293452,1.0179
145,1441,3.31515,-0.0131697,0.293451,1.01758
153,1433,3.31503,-0.0143135,0.293453,1.01695
161,1425,3.31429,-0.0150344,0.293862,1.01635
169,1417,3.31538,-0.0131386,0.293002,1.01525
177,1409,3.31517,-0.0137488,0.293002,1.0149
185,1401,3.31421,-0.0144976,0.293412,1.01428
193,1393,3.31579,-0.0125937,0.292553,1.01317
201,1385,3.31491,-0.0132641,0.292967,1.01261
209,1377,3.31468,-0.0139414,0.292966,1.01223
217,1369,3.31393,-0.0145203,0.293428,1.01171
225,1361,3.31498,-0.0127297,0.292523,1.01055
233,1353,3.31501,-0.0132243,0.292521,1.01026
241,1345,3.31339,-0.0135357,0.293771,1.00947
249,1337,3.31281,-0.0137097,0.294347,1.00916
257,1329,3.31243,-0.0146996,0.294136,1.0086
265,1321,3.31208,-0.0154521,0.294609,1.008
273,1313,3.31355,-0.013518,0.293003,1.00733
281,1305,3.31387,-0.014691,0.292908,1.00668
289,1297,3.31259,-0.0154792,0.293751,1.00585
297,1289,3.31515,-0.0133694,0.291635,1.00548
305,1281,3.31403,-0.0141103,0.292469,1.00465
313,1273,3.31331,-0.0147857,0.292889,1.00408
321,1265,3.31281,-0.0154239,0.292893,1.00376
329,1257,3.3146,-0.0129021,0.291618,1.00319
337,1249,3.31386,-0.0135491,0.292035,1.00262
345,1241,3.31331,-0.0148873,0.292456,1.00194
353,1233,3.31298,-0.0154805,0.292454,1.00136
361,1225,3.31441,-0.0129723,0.291592,1.00056
369,1217,3.31386,-0.0143004,0.292016,0.999652
377,1209,3.3134,-0.0149309,0.292014,0.999315
385,1201,3.31315,-0.01546,0.29201,0.999001
393,1193,3.31386,-0.0137259,0.291581,0.997594
401,1185,3.31413,-0.014238,0.291582,0.997354
409,1177,3.31357,-0.0149629,0.291577,0.996919
417,1169,3.31294,-0.0156321,0.292089,0.99635
425,1161,3.31517,-0.0085428,0.290912,0.995185
433,1153,3.31362,-0.014359,0.291566,0.994681
441,1145,3.31331,-0.0150575,0.291567,0.994305
449,1137,3.314,-0.0111147,0.291243,0.993392
457,1129,3.31384,-0.0137118,0.291129,0.992645
465,1121,3.31294,-0.0145522,0.291554,0.99198
473,1113,3.31286,-0.0151297,0.291553,0.991669
481,1105,3.3126,-0.0158165,0.291638,0.991306
489,1097,3.31375,-0.0131984,0.29069,0.990526
497,1089,3.31264,-0.0145381,0.291124,0.989614
505,1081,3.31245,-0.0156691,0.291556,0.988814
513,1073,3.31418,-0.0125094,0.289823,0.988722
521,1065,3.31455,-0.00904318,0.289496,0.987522
529,1057,3.31287,-0.0148695,0.290695,0.987076
537,1049,3.31156,-0.0158935,0.291556,0.986118
545,1041,3.31356,-0.0134568,0.290258,0.985435
553,1033,3.31304,-0.0149998,0.290695,0.984425
561,1025,3.31181,-0.0153426,0.290687,0.984219
569,1017,3.31354,-0.0134131,0.289818,0.983048
577,1009,3.3137,-0.00983235,0.289928,0.98169
585,1001,3.31211,-0.0153672,0.290694,0.981627
593,993,3.31301,-0.0133491,0.289826,0.9805
601,985,3.31318,-0.0146701,0.289824,0.979794
609,977,3.3121,-0.0154779,0.29026,0.979154
617,969,3.31332,-0.0134625,0.289544,0.978025
625,961,3.31242,-0.0142266,0.289832,0.977421
633,953,3.31177,-0.0154802,0.28983,0.976757
641,945,3.31242,-0.0129993,0.289401,0.975643
649,937,3.31228,-0.0142984,0.289401,0.974968
657,929,3.31072,-0.0157716,0.29029,0.973804
665,921,3.31208,-0.0135924,0.289128,0.972941
673,913,3.31138,-0.0149849,0.289418,0.971999
681,905,3.31021,-0.01644,0.290312,0.970849
689,897,3.31182,-0.0137611,0.288995,0.97024
697,889,3.31072,-0.0151585,0.28944,0.969304
705,881,3.31149,-0.0138554,0.289024,0.96759
713,873,3.31096,-0.0144683,0.289022,0.967273
721,865,3.31036,-0.0165144,0.28947,0.966009
729,857,3.31152,-0.0137171,0.288145,0.96671
737,849,3.31044,-0.0152351,0.289046,0.964228
745,841,3.31146,-0.0139777,0.288175,0.962678
753,833,3.31011,-0.0153517,0.288626,0.961754
761,825,3.30911,-0.0168414,0.289233,0.960794
769,817,3.31034,-0.0147265,0.288211,0.959675
777,809,3.30853,-0.0220799,0.288665,0.958034
785,801,3.30968,-0.0148183,0.28825,0.956982
793,793,3.30909,-0.021434,0.287547,0.956151
801,785,3.31023,-0.0175989,0.28646,0.954826
809,777,3.30862,-0.0179137,0.286913,0.953211
817,769,3.31061,-0.0131807,0.285137,0.951303
825,761,3.30891,-0.0180172,0.285132,0.949896
833,753,3.30946,-0.0202227,0.285166,0.948681
841,745,3.31026,-0.0111743,0.283447,0.946985
849,737,3.31103,-0.0145932,0.282119,0.945564
857,729,3.30887,-0.018394,0.282924,0.944013
865,721,3.30948,-0.0203112,0.282953,0.94295
873,713,3.30954,-0.0112816,0.281236,0.941207
881,705,3.31028,-0.00822882,0.280351,0.939256
889,697,3.30847,-0.0152638,0.281692,0.938623
897,689,3.30818,-0.0193139,0.280733,0.936475
905,681,3.30951,-0.0179214,0.279853,0.934961
913,673,3.30898,-0.0139643,0.278491,0.933748
921,665,3.30904,-0.0125267,0.27806,0.932025
929,657,3.30749,-0.0201127,0.278513,0.93037
937,649,3.3086,-0.0187639,0.277631,0.928824
945,641,3.30663,-0.0191263,0.278082,0.927191
953,633,3.30841,-0.0161033,0.275923,0.924807
961,625,3.30865,-0.0162269,0.274961,0.923291
969,617,3.30786,-0.0165492,0.274955,0.921859
977,609,3.30764,-0.0153452,0.274522,0.920042
985,601,3.3088,-0.019298,0.273191,0.918403
993,593,3.30763,-0.0196613,0.273186,0.916964
1001,585,3.30758,-0.0191262,0.273206,0.914623
1009,577,3.30637,-0.0175207,0.27275,0.913068
1017,569,3.30664,-0.014449,0.271862,0.911067
1025,561,3.30762,-0.0154957,0.270075,0.908504
1033,553,3.30616,-0.0175995,0.27052,0.907294
1041,545,3.30661,-0.015073,0.269636,0.905042
1049,537,3.3072,-0.0190957,0.268295,0.903384
1057,529,3.30756,-0.0159221,0.267403,0.90142
1065,521,3.3067,-0.0151471,0.266952,0.899469
1073,513,3.307,-0.0191611,0.266064,0.89762
1081,505,3.30689,-0.0178875,0.265617,0.895815
1089,497,3.30541,-0.0171257,0.265612,0.893631
1097,489,3.30566,-0.021959,0.264273,0.89163
1105,481,3.30626,-0.0130634,0.263827,0.889886
1113,473,3.30384,-0.023741,0.264724,0.888014
1121,465,3.30422,-0.0212049,0.26383,0.88573
1129,457,3.30554,-0.0203426,0.261592,0.882998
1137,449,3.30578,-0.0169111,0.260244,0.881326
1145,441,3.30331,-0.0238533,0.262037,0.879862
1153,433,3.30434,-0.0193866,0.260689,0.877646
1161,425,3.30467,-0.0205178,0.258898,0.874792
1169,417,3.3053,-0.0159782,0.258067,0.872325
1177,409,3.30494,-0.0153075,0.25709,0.870238
1185,401,3.30332,-0.0195186,0.257984,0.869204
1193,393,3.30412,-0.0186991,0.255736,0.86657
1201,385,3.30384,-0.0199789,0.255731,0.864516
1209,377,3.30453,-0.0154502,0.254379,0.862012
1217,369,3.30506,-0.0166056,0.252633,0.859397
1225,361,3.30302,-0.0178116,0.253023,0.857381
1233,353,3.30307,-0.0170971,0.252695,0.855319
1241,345,3.30369,-0.0188629,0.250766,0.85242
1249,337,3.30377,-0.0183911,0.250308,0.850268
1257,329,3.30405,-0.0215112,0.248955,0.847846
1265,321,3.30225,-0.0248613,0.249841,0.845974
1273,313,3.3022,-0.0180841,0.248039,0.843355
1281,305,3.30313,-0.0212072,0.246242,0.841153
1289,297,3.30349,-0.0205593,0.245774,0.839065
1297,289,3.30413,-0.0156128,0.243978,0.836909
1305,281,3.30408,-0.0137578,0.243508,0.834052
1313,273,3.30122,-0.0230341,0.243941,0.832021
1321,265,3.30241,-0.0181293,0.242145,0.82984
1329,257,3.3025,-0.0156068,0.24167,0.82726
1337,249,3.30275,-0.0207447,0.240314,0.825292
1345,241,3.302675,-0.0188642,0.239839,0.822461
1353,233,3.30346,-0.0139332,0.238038,0.820243
1361,225,3.30305,-0.0213505,0.237554,0.818171
1369,217,3.30076,-0.0226422,0.237992,0.81617
1377,209,3.30151,-0.0164331,0.23631,0.8132
1385,201,3.30162,-0.0218813,0.23527,0.810912
1393,193,3.30168,-0.0198651,0.234346,0.808323
1401,185,3.30213,-0.0150095,0.232986,0.805837
1409,177,3.30178,-0.0192575,0.232064,0.802787
1417,169,3.30281,-0.0141969,0.230269,0.800573
1425,161,3.30197,-0.0144442,0.230234,0.7979
1433,153,3.30094,-0.0160459,0.229242,0.79532
1441,145,3.30123,-0.0111012,0.227877,0.792823
1449,137,3.30117,-0.0196069,0.227631,0.79044
1457,129,3.30135,-0.0145047,0.226004,0.787976
1465,121,3.30258,-0.0178149,0.224208,0.78576
1473,113,3.30276,-0.0149855,0.223269,0.783464
1481,105,3.30119,-0.0127765,0.222835,0.780721
1489,97,3.30078,-0.0120936,0.222326,0.778644
1497,89,3.30122,-0.0162745,0.220864,0.77586
1505,81,3.30102,-0.0205052,0.219592,0.773089
1513,73,3.30195,-0.0154787,0.218223,0.77057
1521,65,3.30137,-0.014779,0.217702,0.768492
1529,57,3.30176,-0.0147515,0.21718,0.766162
1537,49,3.30215,-0.0149689,0.214965,0.762821
1545,41,3.30168,-0.0140095,0.214428,0.76081
1553,33,3.30156,-0.0136295,0.2139,0.758603
1561,25,3.30022,-0.0172446,0.213964,0.756555
1569,17,3.29873,-0.0212308,0.213368,0.754161
1577,9,3.29853,-0.0211447,0.212866,0.751864
1583,3,3.29947,-0.0170805,0.211225,0.74973