File: hust_correlation_analysis/matrices/HUST_9-1_cycle_feature_matrix.csv
cycle_number,rul,voltage,current,capacity,charge_capacity
1,2059,3.32025,0.0119708,0.266693,1.03914
11,2049,3.30557,-0.0170129,0.279052,1.02506
21,2039,3.30999,-0.0161015,0.276011,1.02997
31,2029,3.31166,-0.0153573,0.274061,1.03155
41,2019,3.31206,-0.0159046,0.273281,1.03176
51,2009,3.31367,-0.0141349,0.271922,1.03082
61,1999,3.31362,-0.0156135,0.272056,1.02983
71,1989,3.31487,-0.0135548,0.270942,1.02901
81,1979,3.31367,-0.0150856,0.271333,1.02802
91,1969,3.31471,-0.013527,0.270605,1.02669
101,1959,3.31412,-0.0147777,0.270737,1.02583
111,1949,3.31315,-0.0162077,0.271509,1.02462
121,1939,3.31374,-0.0143083,0.270535,1.0235
131,1929,3.31312,-0.0157079,0.270927,1.02256
141,1919,3.31471,-0.0130471,0.269933,1.02178
151,1909,3.31337,-0.0143513,0.270336,1.0209
161,1899,3.31267,-0.0156378,0.271115,1.01978
171,1889,3.31425,-0.013115,0.269996,1.01917
181,1879,3.31314,-0.0145471,0.270264,1.01799
191,1869,3.31296,-0.0150816,0.270836,1.01771
201,1859,3.31162,-0.0164241,0.271317,1.01657
211,1849,3.31287,-0.0138302,0.269941,1.01602
221,1839,3.31297,-0.0146325,0.270339,1.01538
231,1829,3.31152,-0.0158464,0.27073,1.01453
241,1819,3.31112,-0.0167605,0.271133,1.01384
251,1809,3.31234,-0.0140037,0.270246,1.01311
261,1799,3.31162,-0.014629,0.270142,1.01278
271,1789,3.31148,-0.0154503,0.270545,1.01216
281,1779,3.31041,-0.0165638,0.270539,1.01159
291,1769,3.31264,-0.0139886,0.269153,1.01099
301,1759,3.3113,-0.0153559,0.269957,1.00985
311,1749,3.3107,-0.0159783,0.270349,1.00931
321,1739,3.31045,-0.0166821,0.270605,1.00894
331,1729,3.31161,-0.0147319,0.269358,1.00779
341,1719,3.3117,-0.0155019,0.26976,1.00719
351,1709,3.31048,-0.016101,0.269763,1.00713
361,1699,3.31052,-0.0169097,0.270167,1.00627
371,1689,3.31133,-0.0141047,0.268867,1.00574
381,1679,3.31167,-0.0149991,0.269172,1.00508
391,1669,3.31024,-0.0161789,0.269576,1.00427
401,1659,3.3103,-0.0170334,0.269984,1.00362
411,1649,3.31134,-0.0142673,0.268581,1.00307
421,1639,3.31155,-0.0149491,0.268585,1.00274
431,1629,3.3103,-0.0156483,0.269378,1.00217
441,1619,3.31026,-0.0170292,0.269393,1.00126
451,1609,3.3111,-0.0144283,0.26871,1.00041
461,1599,3.31139,-0.0150408,0.268404,1.00012
471,1589,3.31016,-0.0157767,0.268809,0.999527
481,1579,3.31,-0.0164586,0.268814,0.999197
491,1569,3.31081,-0.0138001,0.267814,0.998362
501,1559,3.31109,-0.0145025,0.267812,0.998021
511,1549,3.30868,-0.0190984,0.26939,0.997446
521,1539,3.30982,-0.0165439,0.268628,0.996568
531,1529,3.3089,-0.0170645,0.268627,0.996302
541,1519,3.30954,-0.0128169,0.268269,0.995414
551,1509,3.30977,-0.015838,0.268036,0.994526
561,1499,3.30928,-0.0166135,0.268037,0.994401
571,1489,3.30935,-0.0172586,0.268039,0.993844
581,1479,3.31006,-0.0145643,0.267029,0.992994
591,1469,3.31017,-0.0160703,0.267854,0.991801
601,1459,3.30892,-0.0165668,0.267856,0.991553
611,1449,3.30824,-0.0173887,0.268276,0.99095
621,1439,3.31016,-0.0146379,0.26686,0.990365
631,1429,3.30908,-0.0160682,0.26727,0.989439
641,1419,3.30901,-0.0169021,0.267691,0.988827
651,1409,3.30787,-0.0173931,0.267774,0.988561
661,1399,3.30939,-0.0147807,0.266984,0.987683
671,1389,3.3096,-0.0161584,0.266677,0.987028
681,1379,3.30803,-0.0168474,0.267095,0.98646
691,1369,3.30801,-0.0175265,0.267094,0.986147
701,1359,3.30964,-0.0154378,0.266086,0.984984
711,1349,3.30829,-0.0162512,0.266499,0.984361
721,1339,3.30836,-0.0175987,0.267224,0.983486
731,1329,3.30953,-0.0148262,0.2655,0.982906
741,1319,3.30834,-0.0156519,0.265918,0.982274
751,1309,3.30796,-0.0169822,0.26633,0.981396
761,1299,3.30746,-0.0176687,0.266338,0.981087
771,1289,3.30859,-0.0157063,0.265322,0.979872
781,1279,3.30863,-0.016352,0.265322,0.979556
791,1269,3.30778,-0.0178541,0.265745,0.978394
801,1259,3.30847,-0.0157193,0.265146,0.977215
811,1249,3.30756,-0.0164831,0.265005,0.976875
821,1239,3.3077,-0.017308,0.265242,0.976479
831,1229,3.30888,-0.0151733,0.26414,0.975338
841,1219,3.30772,-0.0165544,0.264559,0.97444
851,1209,3.30736,-0.0172272,0.264556,0.974131
861,1199,3.30924,-0.0152855,0.263533,0.972854
871,1189,3.30807,-0.0165164,0.263962,0.972064
881,1179,3.30651,-0.0181324,0.264808,0.970825
891,1169,3.30829,-0.0152551,0.263455,0.97024
901,1159,3.30739,-0.0167445,0.263795,0.969297
911,1149,3.30657,-0.0181979,0.264215,0.968394
921,1139,3.30758,-0.0160597,0.263202,0.967221
931,1129,3.30621,-0.0175711,0.263628,0.966295
941,1119,3.30555,-0.018308,0.263623,0.965937
951,1109,3.30733,-0.0162203,0.262998,0.964755
961,1099,3.30633,-0.0177301,0.263035,0.963808
971,1089,3.30789,-0.0155863,0.262006,0.962616
981,1079,3.30689,-0.0169524,0.262436,0.961757
991,1069,3.30506,-0.0185003,0.262871,0.960805
1001,1059,3.30656,-0.0163994,0.261844,0.95961
1011,1049,3.30539,-0.0178636,0.262282,0.958703
1021,1039,3.30652,-0.0157295,0.261246,0.957477
1031,1029,3.30584,-0.0172233,0.261687,0.956574
1041,1019,3.30485,-0.018707,0.262117,0.955633
1051,1009,3.30609,-0.0165833,0.261083,0.954408
1061,999,3.30532,-0.0181568,0.261525,0.953472
1071,989,3.30639,-0.0160464,0.260488,0.952235
1081,979,3.30593,-0.0174941,0.260485,0.951581
1091,969,3.307125,-0.015316,0.259462,0.950409
1101,959,3.3059,-0.0167124,0.259888,0.949512
1111,949,3.30459,-0.0183361,0.260332,0.948541
1121,939,3.30623,-0.0168522,0.259301,0.947033
1131,929,3.30491,-0.0183794,0.259735,0.946095
1141,919,3.30582,-0.0162115,0.258689,0.944853
1151,909,3.30498,-0.0177849,0.259142,0.943919
1161,899,3.30568,-0.0163789,0.258536,0.942085
1171,889,3.30434,-0.017801,0.258976,0.940948
1181,879,3.30311,-0.0194006,0.259428,0.940263
1191,869,3.30389,-0.0179963,0.258829,0.938428
1201,859,3.30275,-0.0193784,0.258825,0.937821
1211,849,3.30317,-0.0173544,0.258233,0.936258
1221,839,3.30233,-0.0196558,0.258681,0.934999
1231,829,3.30334,-0.0173213,0.257638,0.933827
1241,819,3.30201,-0.0189208,0.25809,0.932893
1251,809,3.30364,-0.0174528,0.257033,0.9313
1261,799,3.30256,-0.0191289,0.25749,0.930139
1271,789,3.30287,-0.0176008,0.256895,0.928535
1281,779,3.30189,-0.0190768,0.256893,0.927894
1291,769,3.3026,-0.0176908,0.256284,0.925993
1301,759,3.30126,-0.0192469,0.256745,0.925093
1311,749,3.30282,-0.017723,0.255677,0.924748
1321,739,3.30104,-0.0202011,0.256603,0.921953
1331,729,3.3014,-0.0179007,0.255541,0.920712
1341,719,3.30022,-0.0202835,0.256009,0.919447
1351,709,3.30185,-0.0180467,0.254947,0.918181
1361,699,3.29968,-0.0204836,0.255867,0.916618
1371,689,3.30032,-0.0189381,0.254806,0.915044
1381,679,3.30184,-0.0173016,0.253738,0.913486
1391,669,3.30055,-0.0191144,0.254202,0.912475
1401,659,3.30024,-0.0174377,0.253588,0.910661
1411,649,3.29928,-0.0199216,0.254064,0.909363
1421,639,3.30063,-0.0184717,0.252987,0.907713
1431,629,3.29801,-0.0210083,0.253935,0.906164
1441,619,3.2997,-0.0193833,0.252857,0.90459
1451,609,3.29982,-0.0179112,0.252251,0.902657
1461,599,3.29759,-0.0204146,0.2532,0.901102
1471,589,3.2992,-0.0188478,0.25212,0.899482
1481,579,3.29713,-0.0213366,0.252602,0.8982
1491,569,3.29834,-0.0198875,0.251988,0.896262
1501,559,3.29875,-0.0182217,0.250911,0.894677
1511,549,3.29705,-0.0209528,0.251867,0.893033
1521,539,3.29713,-0.0201347,0.251276,0.890847
1531,529,3.29841,-0.018512,0.250182,0.889201
1541,519,3.29565,-0.0211177,0.251155,0.88762
1551,509,3.29657,-0.020466,0.250548,0.885319
1561,499,3.29718,-0.0186187,0.249441,0.883553
1571,489,3.295,-0.0212685,0.249934,0.882426
1581,479,3.29589,-0.020719,0.249326,0.880065
1591,469,3.29601,-0.0197544,0.248723,0.877894
1601,459,3.29381,-0.0225294,0.249218,0.876508
1611,449,3.29433,-0.0210245,0.248606,0.874525
1621,439,3.29436,-0.0201233,0.248004,0.872302
1631,429,3.29446,-0.0193706,0.247391,0.869984
1641,419,3.29222,-0.0230755,0.248395,0.86798
1651,409,3.2934,-0.0222612,0.247282,0.865977
1661,399,3.29332,-0.0212968,0.24666,0.863708
1671,389,3.29283,-0.0206667,0.246056,0.861339
1681,379,3.29271,-0.0198637,0.245443,0.859026
1691,369,3.29263,-0.0190926,0.244829,0.856699
1701,359,3.29001,-0.0229143,0.246118,0.854683
1711,349,3.29008,-0.0229519,0.245252,0.852031
1721,339,3.29006,-0.0231411,0.244635,0.849303
1731,329,3.29039,-0.0200332,0.243494,0.846927
1741,319,3.28993,-0.0271848,0.242345,0.844288
1751,309,3.29035,-0.0224611,0.240673,0.841643
1761,299,3.28948,-0.0299626,0.240047,0.838654
1771,289,3.28944,-0.0250664,0.238367,0.836053
1781,279,3.28986,-0.0203039,0.236688,0.833402
1791,269,3.289,-0.030084,0.236041,0.830716
1801,259,3.28917,-0.0251743,0.234354,0.828115
1811,249,3.28866,-0.0215699,0.233185,0.824726
1821,239,3.28868,-0.0264073,0.231486,0.822127
1831,229,3.28813,-0.0324243,0.230313,0.818856
1841,219,3.28811,-0.0276615,0.228618,0.816174
1851,209,3.29112,-0.0203623,0.225737,0.813162
1861,199,3.28979,-0.0289891,0.225052,0.809826
1871,189,3.29023,-0.0224426,0.222841,0.806876
1881,179,3.28987,-0.0199706,0.221643,0.80421
1891,169,3.28841,-0.0314205,0.221457,0.800828
1901,159,3.28833,-0.0248037,0.219732,0.797564
1911,149,3.28832,-0.0308459,0.218011,0.794619
1921,139,3.29044,-0.0220206,0.215076,0.790896
1931,129,3.28963,-0.0220582,0.214358,0.78823
1941,119,3.28917,-0.0283728,0.213129,0.784943
1951,109,3.28826,-0.0245091,0.211891,0.78155
1961,99,3.28735,-0.0333933,0.210648,0.77859
1971,89,3.29129,-0.0212813,0.206671,0.775292
1981,79,3.28914,-0.0318196,0.206417,0.771244
1991,69,3.28887,-0.027453,0.204661,0.768289
2001,59,3.28932,-0.0230829,0.202905,0.765341
2011,49,3.29054,-0.0272272,0.200796,0.761623
2021,39,3.29037,-0.0213878,0.198637,0.757997
2031,29,3.28968,-0.0306562,0.19734,0.755
2041,19,3.28909,-0.0265681,0.196054,0.751651
2051,9,3.29205,-0.0304727,0.192987,0.748326
2057,3,3.28996,-0.0303871,0.192982,0.746048