File: hust_correlation_analysis/matrices/HUST_6-3_cycle_feature_matrix.csv
cycle_number,rul,voltage,current,capacity,charge_capacity
1,1806,3.32349,0.0288637,0.271273,1.02902
10,1797,3.3102,-0.0130418,0.285357,1.0058
19,1788,3.31269,-0.016712,0.283609,1.01365
28,1779,3.31385,-0.0178458,0.282477,1.01643
37,1770,3.31549,-0.0164705,0.28081,1.01803
46,1761,3.31668,-0.0150199,0.279574,1.01946
55,1752,3.31776,-0.0155998,0.279161,1.0194
64,1743,3.31658,-0.0169326,0.279642,1.01874
73,1734,3.3169,-0.0175695,0.278753,1.01865
82,1725,3.31794,-0.0163258,0.278271,1.01719
91,1716,3.31745,-0.0170225,0.277785,1.01682
100,1707,3.31879,-0.0145358,0.27682,1.01597
109,1698,3.31816,-0.016397,0.276821,1.01505
118,1689,3.31746,-0.017075,0.277224,1.01447
127,1680,3.31872,-0.0152072,0.276259,1.01329
136,1671,3.31862,-0.0164005,0.276261,1.01271
145,1662,3.31768,-0.0171071,0.276663,1.0121
154,1653,3.31929,-0.0152509,0.275697,1.01094
163,1644,3.31851,-0.01651,0.276106,1.01008
172,1635,3.31794,-0.0171196,0.276105,1.00977
181,1626,3.31888,-0.0148286,0.275546,1.00857
190,1617,3.3187,-0.0159759,0.275956,1.00776
199,1608,3.31831,-0.0166655,0.275957,1.00769
208,1599,3.31759,-0.0179423,0.276368,1.00657
217,1590,3.31868,-0.0154144,0.2754,1.00572
226,1581,3.31781,-0.0161086,0.275812,1.00513
235,1572,3.31698,-0.0174641,0.276225,1.00424
244,1563,3.31648,-0.0181713,0.27664,1.00365
253,1554,3.31614,-0.0181088,0.276634,1.00366
262,1545,3.31754,-0.0156075,0.276075,1.00252
271,1536,3.31653,-0.0162469,0.27649,1.00058
280,1527,3.31594,-0.0170422,0.27691,1.00133
289,1518,3.3157,-0.0181774,0.276072,1.00126
298,1509,3.31648,-0.0156527,0.275516,1.00012
307,1500,3.3169,-0.0169249,0.275515,0.999512
316,1491,3.31715,-0.0176508,0.275521,0.999195
325,1482,3.31582,-0.0183364,0.275931,0.998591
334,1473,3.31721,-0.0157197,0.274956,0.997749
343,1464,3.31628,-0.0171373,0.275378,0.995471
352,1455,3.31616,-0.0177144,0.275372,0.996546
361,1446,3.3161,-0.0184269,0.275372,0.996192
370,1437,3.31736,-0.0164682,0.274395,0.995036
379,1428,3.31644,-0.0171474,0.274817,0.994464
388,1419,3.31586,-0.0180017,0.275243,0.993832
397,1410,3.31612,-0.0184393,0.274818,0.993855
406,1401,3.31819,-0.0157316,0.273416,0.993266
415,1392,3.31727,-0.016552,0.27384,0.99266
424,1383,3.31592,-0.0179934,0.274683,0.991464
433,1374,3.31605,-0.0185889,0.27468,0.991193
442,1365,3.31712,-0.0159445,0.273702,0.990337
451,1356,3.317,-0.016593,0.273707,0.990057
460,1347,3.31655,-0.01729,0.2737,0.989691
469,1338,3.31642,-0.0186516,0.27434,0.98882
478,1329,3.31793,-0.0152373,0.272716,0.988538
487,1320,3.31704,-0.0166293,0.273141,0.987629
496,1311,3.3158,-0.017588,0.273994,0.986704
505,1302,3.31554,-0.0181638,0.273993,0.986424
514,1293,3.31534,-0.0187196,0.273989,0.986155
523,1284,3.31657,-0.0161565,0.273009,0.985252
532,1275,3.31635,-0.0167875,0.273007,0.984959
541,1266,3.31602,-0.0175703,0.273432,0.984336
550,1257,3.31517,-0.0188964,0.273436,0.983718
559,1248,3.31632,-0.0162243,0.272446,0.982832
568,1239,3.31546,-0.0168993,0.272872,0.982268
577,1230,3.31591,-0.0182936,0.272874,0.981623
586,1221,3.31482,-0.0190469,0.273302,0.981027
595,1212,3.31653,-0.0162308,0.271879,0.980432
604,1203,3.31581,-0.0177358,0.272747,0.979276
613,1194,3.31498,-0.0183732,0.272746,0.978973
622,1185,3.31563,-0.0164269,0.272189,0.977505
631,1176,3.31556,-0.0170712,0.272192,0.977215
640,1167,3.31581,-0.0126186,0.271093,0.976585
649,1158,3.31498,-0.0135501,0.271525,0.975904
658,1149,3.31456,-0.0151104,0.271963,0.974942
667,1140,3.31644,-0.0122864,0.270532,0.974347
676,1131,3.31541,-0.0133061,0.270962,0.97361
685,1122,3.31579,-0.0165679,0.271077,0.972685
694,1113,3.31677,-0.0115835,0.269962,0.972254
703,1104,3.315,-0.017942,0.271279,0.972017
712,1095,3.31371,-0.0194315,0.271945,0.970849
721,1086,3.31531,-0.0173821,0.27095,0.969638
730,1077,3.31446,-0.0180877,0.270944,0.969317
739,1068,3.31326,-0.0195482,0.271827,0.968169
748,1059,3.31525,-0.0174371,0.27039,0.96723
757,1050,3.31443,-0.0180782,0.270386,0.966922
766,1041,3.31303,-0.0196208,0.271266,0.965726
775,1032,3.3148,-0.0168586,0.270264,0.964815
784,1023,3.31384,-0.0183193,0.270709,0.963917
793,1014,3.31312,-0.0196905,0.270707,0.963295
802,1005,3.31401,-0.0169935,0.269707,0.962346
811,996,3.31344,-0.0184246,0.270155,0.961474
820,987,3.31288,-0.0198689,0.270597,0.960566
829,978,3.31344,-0.0177462,0.269593,0.959364
838,969,3.3127,-0.0185907,0.270041,0.958736
847,960,3.31172,-0.0200681,0.270486,0.957794
856,951,3.31398,-0.0178043,0.269036,0.956923
865,942,3.31216,-0.0194434,0.269932,0.95568
874,933,3.31376,-0.0173022,0.268923,0.954461
883,924,3.31259,-0.0188014,0.269374,0.953551
892,915,3.31247,-0.0201913,0.269374,0.952931
901,906,3.31253,-0.0181518,0.269024,0.95141
910,897,3.31204,-0.0196192,0.26927,0.950524
919,888,3.31324,-0.0175127,0.268263,0.949285
928,879,3.31165,-0.0189317,0.268715,0.948395
937,870,3.31053,-0.0204972,0.269169,0.947456
946,861,3.31202,-0.0182519,0.26816,0.946263
955,852,3.31052,-0.0197662,0.268618,0.945349
964,843,3.31288,-0.0174947,0.267141,0.944395
973,834,3.31056,-0.0190874,0.268145,0.943206
982,825,3.30891,-0.0208189,0.268988,0.941964
991,816,3.31077,-0.0183903,0.267505,0.941064
1000,807,3.30888,-0.0202041,0.268429,0.939777
1009,798,3.31123,-0.0185226,0.266949,0.938576
1018,789,3.30913,-0.0202348,0.267876,0.937325
1027,780,3.31081,-0.0179403,0.266386,0.936351
1036,771,3.30999,-0.0201694,0.267326,0.93492
1045,762,3.30987,-0.0180635,0.266297,0.933593
1054,753,3.30974,-0.0196701,0.266761,0.93265
1063,744,3.3099,-0.0182077,0.266209,0.930812
1072,735,3.30889,-0.0197405,0.266682,0.929913
1081,726,3.30879,-0.0183898,0.266127,0.928018
1090,717,3.31037,-0.0143462,0.265122,0.926958
1099,708,3.30782,-0.0161147,0.265868,0.925706
1108,699,3.30837,-0.0200812,0.265571,0.924832
1117,690,3.30775,-0.0186066,0.265499,0.922736
1126,681,3.30919,-0.0145814,0.264273,0.92164
1135,672,3.30804,-0.0193903,0.264942,0.919919
1144,663,3.30701,-0.0210952,0.26542,0.918949
1153,654,3.30771,-0.0195366,0.264589,0.917364
1162,645,3.30545,-0.0220567,0.265351,0.915791
1171,636,3.30665,-0.0205745,0.264798,0.913908
1180,627,3.30703,-0.018205,0.264268,0.912643
1189,618,3.30635,-0.0206955,0.264247,0.91138
1198,609,3.30642,-0.0199385,0.263691,0.909422
1207,600,3.30428,-0.0216001,0.264179,0.908226
1216,591,3.30562,-0.0208743,0.263631,0.906017
1225,582,3.30623,-0.0193775,0.262587,0.904387
1234,573,3.30472,-0.0218304,0.263073,0.903106
1243,564,3.30431,-0.0211929,0.26302,0.900586
1252,555,3.3047,-0.0195782,0.261968,0.898974
1261,546,3.30358,-0.0230464,0.263047,0.897059
1270,537,3.30386,-0.0202096,0.261917,0.894734
1279,528,3.3031,-0.0186632,0.261364,0.892827
1288,519,3.30468,-0.0219213,0.259301,0.890837
1297,510,3.30505,-0.0190631,0.258238,0.888503
1306,501,3.30209,-0.0203659,0.258737,0.886515
1315,492,3.30272,-0.0265075,0.257673,0.88405
1324,483,3.30447,-0.0149799,0.254785,0.881368
1333,474,3.30222,-0.0183765,0.255796,0.879744
1342,465,3.30393,-0.0246146,0.253962,0.876918
1351,456,3.30271,-0.0178011,0.252627,0.874333
1360,447,3.30245,-0.0276038,0.251597,0.872631
1369,438,3.30306,-0.0232351,0.250309,0.869938
1378,429,3.30287,-0.0229671,0.249722,0.867512
1387,420,3.30367,-0.0243507,0.247646,0.865044
1396,411,3.30211,-0.0245483,0.247555,0.862201
1405,402,3.30391,-0.0213976,0.245968,0.860201
1414,393,3.30241,-0.0283292,0.245373,0.857238
1423,384,3.30285,-0.026173,0.244285,0.854631
1432,375,3.30235,-0.0203292,0.242755,0.851253
1441,366,3.3024,-0.0194424,0.241589,0.849301
1450,357,3.30141,-0.0263707,0.240984,0.846386
1459,348,3.30222,-0.0219382,0.239387,0.84366
1468,339,3.30245,-0.0241406,0.237295,0.8409
1477,330,3.30245,-0.0243427,0.236675,0.838299
1486,321,3.30269,-0.0275284,0.235072,0.834923
1495,312,3.30261,-0.0267803,0.233961,0.832975
1504,303,3.3025,-0.0207227,0.232355,0.829595
1513,294,3.30211,-0.020039,0.231725,0.827368
1522,285,3.30201,-0.0232603,0.230113,0.823952
1531,276,3.30219,-0.0210939,0.228988,0.821294
1540,267,3.30255,-0.0257671,0.227539,0.817204
1549,258,3.30163,-0.023628,0.227227,0.815656
1558,249,3.30175,-0.0212791,0.225587,0.813041
1567,240,3.30206,-0.0285592,0.224456,0.810408
1576,231,3.30259,-0.0213243,0.222348,0.807646
1585,222,3.30226,-0.0206302,0.221682,0.805371
1594,213,3.30181,-0.0277557,0.220535,0.802789
1603,204,3.30452,-0.0155534,0.217417,0.800096
1612,195,3.30369,-0.0213972,0.216257,0.796544
1621,186,3.30347,-0.0205619,0.215566,0.794532
1630,177,3.30329,-0.0204571,0.214957,0.791843
1639,168,3.30147,-0.0279971,0.214395,0.789297
1648,159,3.30317,-0.0224718,0.212301,0.786681
1657,150,3.30302,-0.0225926,0.211598,0.78411
1666,141,3.30272,-0.0291179,0.210273,0.781813
1675,132,3.29895,-0.0344733,0.211697,0.779228
1684,123,3.30036,-0.0244631,0.209392,0.77636
1693,114,3.29923,-0.0234715,0.208377,0.774145
1702,105,3.30106,-0.0285626,0.206718,0.771425
1711,96,3.30038,-0.0278593,0.206,0.76915
1720,87,3.30133,-0.0228296,0.204341,0.766465
1729,78,3.30121,-0.0304056,0.203138,0.763874
1738,69,3.30089,-0.0270115,0.201934,0.761536
1747,60,3.30217,-0.0321179,0.200262,0.758862
1756,51,3.30185,-0.0271173,0.198607,0.756119
1765,42,3.30215,-0.0236595,0.197374,0.753788
1774,33,3.30224,-0.0237566,0.196619,0.751241
1783,24,3.30298,-0.0290346,0.194937,0.748533
1792,15,3.30109,-0.0282299,0.194914,0.745808
1801,6,3.29934,-0.0325725,0.195096,0.744373
1804,3,3.30135,-0.0267424,0.193398,0.743015