File: hust_correlation_analysis/matrices/HUST_10-3_cycle_feature_matrix.csv
cycle_number,rul,voltage,current,capacity,charge_capacity
1,1850,3.32771,-0.0116405,0.265082,1.0019
10,1841,3.3113,-0.0155603,0.269955,0.994048
19,1832,3.31349,-0.0140501,0.268033,0.99316
28,1823,3.31302,-0.0162285,0.268458,0.991959
37,1814,3.31465,-0.014167,0.266517,0.991239
46,1805,3.31404,-0.0148339,0.266505,0.990921
55,1796,3.31342,-0.0163041,0.266928,0.989998
64,1787,3.31548,-0.0135297,0.265015,0.989639
73,1778,3.31441,-0.0149483,0.265434,0.988752
82,1769,3.31432,-0.016337,0.265866,0.987885
91,1760,3.31373,-0.0170277,0.265441,0.987813
100,1751,3.31552,-0.0142235,0.263951,0.987255
109,1742,3.31574,-0.0156657,0.264375,0.986365
118,1733,3.31466,-0.0163531,0.264385,0.986098
127,1724,3.31315,-0.0171274,0.264803,0.985475
136,1715,3.31629,-0.0144505,0.263322,0.984834
145,1706,3.31573,-0.0157006,0.263422,0.984291
154,1697,3.31489,-0.0164123,0.263744,0.983709
163,1688,3.31462,-0.0170932,0.263738,0.983402
172,1679,3.3155,-0.0144613,0.262688,0.982486
181,1670,3.31581,-0.0150451,0.262367,0.98223
190,1661,3.31564,-0.015839,0.263079,0.98188
199,1652,3.31477,-0.0164856,0.263117,0.981596
208,1643,3.31472,-0.0172503,0.263114,0.981008
217,1634,3.31587,-0.0143902,0.261609,0.980381
226,1625,3.31679,-0.0150907,0.261611,0.98009
235,1616,3.31579,-0.0158974,0.262036,0.979457
244,1607,3.31503,-0.0165673,0.262034,0.979168
253,1598,3.31549,-0.0173814,0.262033,0.978818
262,1589,3.31723,-0.0144466,0.260536,0.97824
271,1580,3.31642,-0.0143911,0.260942,0.978185
280,1571,3.31608,-0.0151867,0.260922,0.977784
289,1562,3.31553,-0.0152784,0.260924,0.9775
298,1553,3.31554,-0.0159353,0.260924,0.9772
307,1544,3.31462,-0.0167599,0.26136,0.976622
316,1535,3.3162,-0.0145933,0.260291,0.975469
325,1526,3.31609,-0.0146359,0.260283,0.975428
334,1517,3.31545,-0.0160125,0.260287,0.974837
343,1508,3.31559,-0.01675,0.260727,0.974101
352,1499,3.31526,-0.0174828,0.261033,0.973952
361,1490,3.31566,-0.01399,0.259641,0.971927
370,1481,3.31679,-0.0153138,0.259595,0.973054
379,1472,3.31558,-0.0154273,0.259649,0.972744
388,1463,3.31584,-0.0159843,0.259638,0.972473
397,1454,3.31476,-0.0176074,0.260089,0.971581
406,1445,3.31678,-0.0139889,0.258567,0.971233
415,1436,3.31678,-0.0147274,0.258563,0.970898
424,1427,3.31561,-0.0162461,0.259009,0.970025
433,1418,3.31581,-0.0168653,0.259012,0.969766
442,1409,3.31451,-0.0176617,0.259436,0.969146
451,1400,3.316434,-0.014576,0.25793,0.96862
460,1391,3.31591,-0.0156296,0.258358,0.967909
469,1382,3.31581,-0.0163619,0.25835,0.967566
478,1373,3.31569,-0.0170185,0.258363,0.96757
487,1364,3.31423,-0.0177283,0.258792,0.966768
496,1355,3.31693,-0.0147533,0.25728,0.966166
505,1346,3.31626,-0.0155355,0.257278,0.965829
514,1337,3.31489,-0.0170296,0.258144,0.964681
523,1328,3.31467,-0.0179036,0.258135,0.964269
532,1319,3.316,-0.014218,0.256527,0.963938
541,1310,3.31601,-0.0157452,0.257039,0.963028
550,1301,3.31487,-0.0164736,0.257011,0.962713
559,1292,3.31541,-0.0171665,0.257025,0.962376
568,1283,3.31461,-0.0178921,0.257043,0.96212
577,1274,3.316,-0.014986,0.256042,0.961214
586,1265,3.31566,-0.0157336,0.255945,0.960883
595,1256,3.31579,-0.0172454,0.256392,0.960013
604,1247,3.31468,-0.0179681,0.256387,0.959686
613,1238,3.31597,-0.0150435,0.255277,0.958738
622,1229,3.31595,-0.0159006,0.255292,0.958425
631,1220,3.31544,-0.0165706,0.255293,0.958137
640,1211,3.31483,-0.0173745,0.255812,0.957519
649,1202,3.31679,-0.0151494,0.254199,0.95659
658,1193,3.31596,-0.0159807,0.254629,0.955984
667,1184,3.3151,-0.0167545,0.25507,0.955395
676,1175,3.31526,-0.0174415,0.255067,0.955096
685,1166,3.3139,-0.0182444,0.255066,0.95476
694,1157,3.31654,-0.0152459,0.253537,0.954147
703,1148,3.31581,-0.0168251,0.253969,0.953209
712,1139,3.31573,-0.017513,0.253969,0.95292
721,1130,3.31455,-0.0182289,0.253966,0.952852
730,1121,3.31621,-0.0153069,0.252857,0.951665
739,1112,3.31595,-0.0159964,0.252865,0.951382
748,1103,3.31604,-0.016802,0.252809,0.951056
757,1094,3.31447,-0.017564,0.253294,0.950458
766,1085,3.31412,-0.0183952,0.253294,0.950104
775,1076,3.31636,-0.0160199,0.252198,0.948956
784,1067,3.31616,-0.0168672,0.252198,0.948609
793,1058,3.31557,-0.0174654,0.252195,0.948343
802,1049,3.31666,-0.0153545,0.25109,0.947083
811,1040,3.31659,-0.0161612,0.251091,0.946747
820,1031,3.31579,-0.0169324,0.25153,0.946164
829,1022,3.31635,-0.0176894,0.251077,0.946301
838,1013,3.31603,-0.0154202,0.250416,0.944406
847,1004,3.3161,-0.0163527,0.250714,0.944213
856,995,3.315,-0.0179725,0.250841,0.943254
865,986,3.31752,-0.0148447,0.249299,0.942657
874,977,3.31641,-0.0163476,0.249743,0.94178
883,968,3.31554,-0.0179403,0.250181,0.940866
892,959,3.31479,-0.0186694,0.25018,0.94054
901,950,3.31619,-0.016473,0.249064,0.939283
910,941,3.31609,-0.0172538,0.24935,0.938935
919,932,3.31462,-0.0188923,0.249494,0.93798
928,923,3.3165,-0.0166706,0.248392,0.93677
937,914,3.31501,-0.0173521,0.248829,0.936213
946,905,3.31634,-0.0150656,0.247268,0.935226
955,896,3.31634,-0.0173549,0.248093,0.934038
964,887,3.31502,-0.0182354,0.248159,0.933429
973,878,3.31701,-0.0158121,0.246589,0.932485
982,869,3.31638,-0.0174531,0.247034,0.931557
991,860,3.31471,-0.0190517,0.247472,0.930616
1000,851,3.31638,-0.016782,0.246347,0.92936
1009,842,3.31583,-0.0183183,0.246315,0.928721
1018,833,3.31572,-0.016087,0.245658,0.927157
1027,824,3.3155,-0.0176071,0.245658,0.926534
1036,815,3.31449,-0.0193352,0.24609,0.92552
1045,806,3.31523,-0.0162196,0.244961,0.924585
1054,797,3.31444,-0.0185196,0.245414,0.923417
1063,788,3.31563,-0.0163892,0.244278,0.922061
1072,779,3.31483,-0.0178929,0.244719,0.921169
1081,770,3.31328,-0.0195448,0.245182,0.920272
1090,761,3.31419,-0.0172998,0.244041,0.918957
1099,752,3.31405,-0.0189221,0.244033,0.918276
1108,743,3.31566,-0.0166009,0.242892,0.917001
1117,734,3.31346,-0.0189423,0.243798,0.915525
1126,725,3.31502,-0.0166257,0.2422,0.914501
1135,716,3.31395,-0.0181796,0.24265,0.913608
1144,707,3.31481,-0.0167353,0.241951,0.911675
1153,698,3.31384,-0.0184309,0.242412,0.910744
1162,689,3.31594,-0.0166646,0.240804,0.909479
1171,680,3.31354,-0.018464,0.241713,0.908223
1180,671,3.31473,-0.0169235,0.240647,0.906602
1189,662,3.31317,-0.0186709,0.241018,0.905638
1198,653,3.31435,-0.0168247,0.239848,0.904103
1207,644,3.31392,-0.018595,0.239857,0.903435
1216,635,3.31433,-0.0169918,0.239153,0.901544
1225,626,3.31315,-0.0188804,0.239605,0.900497
1234,617,3.31455,-0.0172157,0.238439,0.898887
1243,608,3.31341,-0.0197708,0.238898,0.897609
1252,599,3.31403,-0.0182826,0.23819,0.895657
1261,590,3.31222,-0.0207244,0.238651,0.894411
1270,581,3.31271,-0.019314,0.237945,0.892439
1279,572,3.31399,-0.0175986,0.236772,0.890848
1288,563,3.31171,-0.0204042,0.237703,0.889184
1297,554,3.3122,-0.018516,0.236517,0.88762
1306,545,3.31101,-0.0212153,0.236993,0.886574
1315,536,3.31183,-0.0193466,0.235804,0.884998
1324,527,3.31227,-0.017818,0.235085,0.88278
1333,518,3.3111,-0.0205195,0.235557,0.881457
1342,509,3.31159,-0.0197086,0.234838,0.879188
1351,500,3.31219,-0.0181189,0.234118,0.877217
1360,491,3.30981,-0.0208423,0.234862,0.875884
1369,482,3.31019,-0.0200693,0.233868,0.873589
1378,473,3.31139,-0.0182555,0.232663,0.871964
1387,464,3.31219,-0.0174326,0.231932,0.869665
1396,455,3.30941,-0.0213539,0.232895,0.867616
1405,446,3.30919,-0.0195943,0.232166,0.865648
1414,437,3.31109,-0.0186024,0.230948,0.863706
1423,428,3.31144,-0.0178842,0.23061,0.861336
1432,419,3.30744,-0.0218574,0.23168,0.858989
1441,410,3.30903,-0.0209976,0.23045,0.856954
1450,401,3.30872,-0.0201283,0.230113,0.85463
1459,392,3.30926,-0.019214,0.22897,0.852301
1468,383,3.30624,-0.0207985,0.229462,0.850278
1477,374,3.30705,-0.0271322,0.228214,0.847965
1486,365,3.30775,-0.0213304,0.225968,0.845946
1495,356,3.30757,-0.0180739,0.225214,0.843311
1504,347,3.30824,-0.0252498,0.223458,0.840777
1513,338,3.30917,-0.0196656,0.222102,0.838607
1522,329,3.30566,-0.0235409,0.222693,0.836664
1531,320,3.30689,-0.0275948,0.220938,0.834355
1540,311,3.30559,-0.0253905,0.220149,0.831286
1549,302,3.30684,-0.0293098,0.217893,0.829315
1558,293,3.30767,-0.0233882,0.216121,0.826997
1567,284,3.30833,-0.0185031,0.214365,0.824365
1576,275,3.30802,-0.0275764,0.213957,0.822031
1585,266,3.30799,-0.0242604,0.212264,0.81965
1594,257,3.30555,-0.0241931,0.212252,0.817351
1603,248,3.30666,-0.0305806,0.210481,0.815447
1612,239,3.30593,-0.0284562,0.210058,0.81238
1621,230,3.30805,-0.0197931,0.20692,0.810394
1630,221,3.30675,-0.0301348,0.206567,0.807411
1639,212,3.30806,-0.0239499,0.204304,0.805454
1648,203,3.30745,-0.0217733,0.203463,0.802389
1657,194,3.30906,-0.0256588,0.201401,0.800473
1666,185,3.30836,-0.0258345,0.200648,0.797779
1675,176,3.3091,-0.0207004,0.198564,0.79368
1684,167,3.30929,-0.0277641,0.197189,0.79274
1693,158,3.31004,-0.0224166,0.195379,0.79015
1702,149,3.30636,-0.0251211,0.195838,0.78781
1711,140,3.30686,-0.0305851,0.194022,0.785119
1720,131,3.30828,-0.0268704,0.192516,0.783155
1729,122,3.30809,-0.0320698,0.190396,0.780569
1738,113,3.30825,-0.0297034,0.18903,0.777842
1747,104,3.30956,-0.0242521,0.186754,0.775553
1756,95,3.30949,-0.0325002,0.185214,0.773079
1765,86,3.3096,-0.0284431,0.184387,0.76954
1774,77,3.31021,-0.0245033,0.182538,0.767559
1783,68,3.30879,-0.0340521,0.181205,0.764159
1792,59,3.30955,-0.0312877,0.179363,0.761851
1801,50,3.31313,-0.0205816,0.175685,0.75884
1810,41,3.31293,-0.0301431,0.174275,0.75581
1819,32,3.31356,-0.0247258,0.172417,0.753137
1828,23,3.3147,-0.0203524,0.170563,0.750144
1837,14,3.31421,-0.0296892,0.16913,0.747207
1846,5,3.31433,-0.0255459,0.167272,0.744162
1848,3,3.31657,-0.0221512,0.166094,0.742862