File: hust_correlation_analysis/matrices/HUST_7-2_cycle_feature_matrix.csv
cycle_number,rul,voltage,current,capacity,charge_capacity
1,2032,3.32386,0.00744738,0.261618,1.01614
11,2022,3.31048,-0.0183141,0.273201,1.00554
21,2012,3.3139,-0.0159784,0.26979,1.00881
31,2002,3.31636,-0.0167079,0.268524,1.00932
41,1992,3.31492,-0.0171657,0.268084,1.00931
51,1982,3.31671,-0.0152199,0.267459,1.00805
61,1972,3.31545,-0.0174388,0.267424,1.00682
71,1962,3.31659,-0.0160971,0.266766,1.00506
81,1952,3.31591,-0.0176318,0.267182,1.00413
91,1942,3.31541,-0.0162391,0.266537,1.00244
101,1932,3.31539,-0.017688,0.266952,1.00149
111,1922,3.3159,-0.0156092,0.26589,1.00037
121,1912,3.3158,-0.017094,0.26631,0.99945
131,1902,3.31408,-0.0183803,0.267146,0.998319
141,1892,3.31542,-0.0163186,0.266082,0.997175
151,1882,3.31417,-0.0177886,0.266925,0.995745
161,1872,3.31461,-0.0150475,0.265839,0.995029
171,1862,3.3145,-0.0165469,0.266277,0.994176
181,1852,3.31346,-0.0179419,0.266702,0.993275
191,1842,3.31445,-0.0151271,0.265617,0.992384
201,1832,3.31423,-0.0165303,0.266046,0.991517
211,1822,3.31227,-0.0180728,0.266905,0.990304
221,1812,3.3115,-0.018814,0.267338,0.989709
231,1802,3.31433,-0.0160971,0.265813,0.989013
241,1792,3.31217,-0.0174614,0.266676,0.987879
251,1782,3.31161,-0.0182169,0.266684,0.987592
261,1772,3.31141,-0.0190172,0.267457,0.986975
271,1762,3.31322,-0.0161051,0.266003,0.985972
281,1752,3.31189,-0.0167165,0.266427,0.985401
291,1742,3.31154,-0.0176143,0.26653,0.985033
301,1732,3.3104,-0.0185642,0.267302,0.984075
311,1722,3.31226,-0.016424,0.265791,0.983214
321,1712,3.31211,-0.0175865,0.265786,0.982753
331,1702,3.3109,-0.0184939,0.26623,0.982089
341,1692,3.31191,-0.0162769,0.26514,0.980944
351,1682,3.31143,-0.0170064,0.26557,0.980318
361,1672,3.31071,-0.0180515,0.26602,0.979628
371,1662,3.3106,-0.0187184,0.266019,0.97937
381,1652,3.31282,-0.0157439,0.264477,0.978766
391,1642,3.31166,-0.0170437,0.265033,0.97799
401,1632,3.31119,-0.017804,0.265368,0.977402
411,1622,3.30991,-0.0188455,0.265813,0.976674
421,1612,3.31087,-0.0166069,0.264718,0.975516
431,1602,3.31092,-0.0173018,0.264718,0.975227
441,1592,3.30989,-0.0180955,0.265156,0.974599
451,1582,3.30918,-0.0195261,0.265613,0.973777
461,1572,3.31038,-0.0166144,0.26491,0.972826
471,1562,3.31008,-0.0173105,0.264492,0.972499
481,1552,3.3095,-0.0187585,0.265362,0.971692
491,1542,3.30851,-0.0196388,0.265407,0.971066
501,1532,3.31112,-0.0167285,0.263842,0.970392
511,1522,3.30974,-0.0174247,0.264301,0.969859
521,1512,3.30968,-0.0180834,0.264278,0.969357
531,1502,3.30826,-0.0190035,0.264722,0.969086
541,1492,3.30966,-0.0168295,0.263616,0.967601
551,1482,3.30897,-0.0177405,0.264472,0.966937
561,1472,3.30863,-0.0183721,0.264062,0.966663
571,1462,3.3081,-0.0198204,0.26452,0.965841
581,1452,3.30969,-0.0168755,0.263407,0.964893
591,1442,3.3095,-0.0176793,0.263412,0.964599
601,1432,3.30948,-0.0193081,0.26387,0.963677
611,1422,3.30782,-0.0201338,0.264792,0.963028
621,1412,3.30961,-0.0172289,0.262743,0.96215
631,1402,3.30816,-0.0185611,0.263214,0.961586
641,1392,3.30772,-0.0194002,0.263659,0.960924
651,1382,3.3092,-0.0164011,0.262558,0.960276
661,1372,3.30834,-0.0178842,0.263009,0.959154
671,1362,3.30815,-0.0186127,0.262997,0.958821
681,1352,3.30751,-0.0203593,0.263458,0.957847
691,1342,3.30908,-0.0172449,0.261871,0.957229
701,1332,3.30698,-0.0188547,0.262793,0.956016
711,1322,3.30734,-0.0197183,0.2628,0.955689
721,1312,3.3061,-0.0203866,0.26325,0.955117
731,1302,3.30874,-0.0181362,0.261652,0.954128
741,1292,3.30712,-0.0190163,0.262116,0.953486
751,1282,3.30563,-0.0205568,0.262989,0.952601
761,1272,3.30816,-0.017416,0.260981,0.951955
771,1262,3.30782,-0.0183139,0.261438,0.951307
781,1252,3.30637,-0.0200684,0.261921,0.95039
791,1242,3.30726,-0.0169012,0.260787,0.949471
801,1232,3.3066,-0.0183298,0.261248,0.948627
811,1222,3.30697,-0.0200714,0.261261,0.947985
821,1212,3.30527,-0.0207833,0.261724,0.947406
831,1202,3.30686,-0.0185164,0.26058,0.94611
841,1192,3.30699,-0.0194332,0.260567,0.945706
851,1182,3.30516,-0.0208607,0.261043,0.944901
861,1172,3.30675,-0.0177538,0.259432,0.944233
871,1162,3.30678,-0.0193954,0.259891,0.943285
881,1152,3.30543,-0.0210362,0.260381,0.942425
891,1142,3.30661,-0.0179432,0.259648,0.941453
901,1132,3.30623,-0.0196534,0.259804,0.940495
911,1122,3.30482,-0.0203811,0.259712,0.94023
921,1112,3.30705,-0.0179231,0.258552,0.938966
931,1102,3.30592,-0.0199052,0.259041,0.937978
941,1092,3.30429,-0.0212307,0.259517,0.937181
951,1082,3.30719,-0.0181481,0.257885,0.936473
961,1072,3.30537,-0.0196893,0.258366,0.93561
971,1062,3.30459,-0.0213551,0.258857,0.934723
981,1052,3.30559,-0.0190999,0.257703,0.933408
991,1042,3.30487,-0.0198717,0.258182,0.932649
1001,1032,3.30443,-0.0217278,0.258662,0.931842
1011,1022,3.30444,-0.0192277,0.257503,0.930457
1021,1012,3.30409,-0.0209725,0.25798,0.929633
1031,1002,3.30536,-0.0175788,0.256332,0.929002
1041,992,3.30547,-0.0194058,0.256805,0.928001
1051,982,3.30347,-0.0210312,0.257285,0.927087
1061,972,3.30587,-0.0184692,0.25661,0.925855
1071,962,3.30376,-0.0202085,0.256609,0.924926
1081,952,3.30298,-0.0219099,0.257084,0.923975
1091,942,3.3037,-0.0194821,0.256417,0.922704
1101,932,3.30343,-0.0212495,0.256419,0.921785
1111,922,3.30387,-0.0188209,0.255248,0.920701
1121,912,3.30438,-0.0204246,0.255233,0.919658
1131,902,3.30186,-0.0224082,0.256231,0.918577
1141,892,3.30449,-0.0199168,0.254563,0.917598
1151,882,3.30179,-0.021554,0.255544,0.916379
1161,872,3.30328,-0.0191471,0.254356,0.915033
1171,862,3.30357,-0.0207788,0.254365,0.914477
1181,852,3.30101,-0.0224634,0.254856,0.913549
1191,842,3.30297,-0.0200783,0.253678,0.912223
1201,832,3.30244,-0.0218583,0.254269,0.911301
1211,822,3.30239,-0.0203329,0.253974,0.909295
1221,812,3.30181,-0.0220476,0.253481,0.908687
1231,802,3.30369,-0.019442,0.2523,0.907446
1241,792,3.30193,-0.0210977,0.252795,0.906522
1251,782,3.30269,-0.0186972,0.251585,0.905108
1261,772,3.30071,-0.0214697,0.252591,0.903519
1271,762,3.30048,-0.0230524,0.252591,0.902966
1281,752,3.30188,-0.0204903,0.251387,0.901638
1291,742,3.29982,-0.0234368,0.252405,0.899988
1301,732,3.30059,-0.0208174,0.251209,0.898704
1311,722,3.29972,-0.0235266,0.251711,0.897433
1321,712,3.30031,-0.0209446,0.250506,0.896105
1331,702,3.29888,-0.0238311,0.251535,0.894496
1341,692,3.30038,-0.0215031,0.25032,0.893057
1351,682,3.29932,-0.0239201,0.25083,0.891897
1361,672,3.3002,-0.021118,0.249612,0.890623
1371,662,3.29872,-0.0238099,0.250127,0.889376
1381,652,3.30028,-0.0212715,0.248901,0.887975
1391,642,3.29769,-0.0241182,0.249938,0.886366
1401,632,3.29894,-0.0222993,0.248715,0.88475
1411,622,3.30029,-0.0196659,0.247492,0.883386
1421,612,3.29865,-0.0224616,0.248008,0.882343
1431,602,3.30025,-0.0207445,0.246773,0.880441
1441,592,3.29812,-0.0237745,0.247835,0.878795
1451,582,3.29894,-0.0219599,0.246595,0.877131
1461,572,3.29667,-0.0249618,0.247644,0.875459
1471,562,3.29727,-0.0231244,0.246401,0.873791
1481,552,3.29842,-0.0211643,0.245161,0.87219
1491,542,3.29593,-0.0242473,0.24646,0.870489
1501,532,3.29734,-0.0224424,0.244968,0.868799
1511,522,3.29592,-0.0252618,0.245491,0.867731
1521,512,3.29652,-0.0235224,0.24477,0.865459
1531,502,3.29681,-0.0218245,0.243514,0.863717
1541,492,3.29539,-0.0245709,0.244046,0.862472
1551,482,3.29529,-0.0228623,0.243335,0.860416
1561,472,3.29767,-0.0210889,0.242063,0.858697
1571,462,3.29368,-0.0251698,0.243138,0.856654
1581,452,3.29466,-0.0231968,0.241867,0.854972
1591,442,3.29616,-0.0222847,0.24114,0.852627
1601,432,3.29267,-0.025626,0.242239,0.850876
1611,422,3.29382,-0.0236499,0.240944,0.849146
1621,412,3.29578,-0.0226352,0.239651,0.846945
1631,402,3.29243,-0.0269419,0.241059,0.845112
1641,392,3.2925,-0.0260467,0.240029,0.842681
1651,382,3.29278,-0.0242207,0.239287,0.840545
1661,372,3.29275,-0.0232343,0.238547,0.838152
1671,362,3.29401,-0.0223582,0.237236,0.836065
1681,352,3.29062,-0.0266269,0.238368,0.834026
1691,342,3.29134,-0.0259557,0.237616,0.831491
1701,332,3.29161,-0.0250649,0.23686,0.829019
1711,322,3.29189,-0.0252391,0.236112,0.826237
1721,312,3.29208,-0.0240061,0.235346,0.823808
1731,302,3.29122,-0.0231891,0.234583,0.821275
1741,292,3.28794,-0.0289425,0.235741,0.818787
1751,282,3.2887,-0.0279465,0.23537,0.816325
1761,272,3.28784,-0.0282227,0.234225,0.813442
1771,262,3.2879,-0.0284213,0.233451,0.810564
1781,252,3.28817,-0.0274205,0.232669,0.808006
1791,242,3.28845,-0.0276892,0.231903,0.80512
1801,232,3.28673,-0.0292754,0.231716,0.80139
1811,222,3.28575,-0.028174,0.23091,0.798763
1821,212,3.2848,-0.0297191,0.230733,0.795029
1831,202,3.28399,-0.0298311,0.22993,0.792074
1841,192,3.28625,-0.0347338,0.227104,0.787992
1851,182,3.28546,-0.0296615,0.225049,0.785144
1861,172,3.28529,-0.0372123,0.223613,0.781766
1871,162,3.28495,-0.0324471,0.221554,0.778833
1881,152,3.28427,-0.039799,0.2201,0.775526
1891,142,3.28869,-0.0228862,0.214781,0.772514
1901,132,3.28712,-0.0334977,0.213902,0.768981
1911,122,3.28654,-0.0283708,0.211822,0.766118
1921,112,3.28532,-0.0364933,0.210334,0.762635
1931,102,3.28428,-0.029542,0.208246,0.759192
1941,92,3.28745,-0.0308127,0.20407,0.755834
1951,82,3.28638,-0.0291836,0.203115,0.752234
1961,72,3.28646,-0.0336781,0.200431,0.749498
1971,62,3.28458,-0.042625,0.198893,0.746064
1981,52,3.28827,-0.0315357,0.194665,0.742392
1991,42,3.28679,-0.0276499,0.1931,0.738754
2001,32,3.29163,-0.0238048,0.187749,0.735424
2011,22,3.2891,-0.0362814,0.186715,0.731583
2021,12,3.28775,-0.0422386,0.18457,0.7281
2030,3,3.29177,-0.0309909,0.180289,0.724631