File: hust_correlation_analysis/matrices/HUST_4-2_cycle_feature_matrix.csv
cycle_number,rul,voltage,current,capacity,charge_capacity
1,1784,3.30092,0.0240521,0.358702,1.06977
10,1775,3.28981,-0.00763407,0.37141,1.05106
19,1766,3.29502,-0.00444177,0.366831,1.05742
28,1757,3.29616,-0.00528352,0.364424,1.0599
37,1748,3.29748,-0.00546556,0.36316,1.06011
46,1739,3.29836,-0.00499347,0.361868,1.06089
55,1730,3.29809,-0.00556075,0.361896,1.06037
64,1721,3.30034,-0.00395239,0.360161,1.05989
73,1712,3.29932,-0.0050184,0.360942,1.05874
82,1703,3.2994,-0.00586183,0.360563,1.05826
91,1694,3.30026,-0.00399907,0.360003,1.05745
100,1685,3.30018,-0.00478525,0.360016,1.05688
109,1676,3.2997,-0.00592807,0.360413,1.05581
118,1667,3.30093,-0.00387692,0.359477,1.05538
127,1658,3.30022,-0.00496064,0.360296,1.05429
136,1649,3.29957,-0.00542947,0.360709,1.0538
145,1640,3.30071,-0.00393594,0.360179,1.05276
154,1631,3.30026,-0.00452894,0.360181,1.05228
163,1622,3.29965,-0.00506706,0.360567,1.05166
172,1613,3.29903,-0.00596744,0.360989,1.05087
181,1604,3.30054,-0.00391136,0.360035,1.05037
190,1595,3.30007,-0.00446999,0.359994,1.04983
199,1586,3.29926,-0.00581447,0.360763,1.04967
208,1577,3.29892,-0.00688861,0.360789,1.04879
217,1568,3.3002,-0.00358955,0.359424,1.04817
226,1559,3.30007,-0.00439036,0.359427,1.04755
235,1550,3.29958,-0.00515885,0.359839,1.04684
244,1541,3.29925,-0.00598492,0.360273,1.04609
253,1532,3.30007,-0.00417954,0.359709,1.04522
262,1523,3.29994,-0.00461109,0.359733,1.04495
271,1514,3.29897,-0.00520025,0.360139,1.04431
280,1505,3.29943,-0.00599404,0.360174,1.0438
289,1496,3.29999,-0.00406796,0.359613,1.043
298,1487,3.30016,-0.00450065,0.359633,1.0427
307,1478,3.29904,-0.00511067,0.360036,1.04206
316,1469,3.29897,-0.00559409,0.360466,1.04161
325,1460,3.30003,-0.00400339,0.359932,1.04059
334,1451,3.30029,-0.00400734,0.359503,1.04068
343,1442,3.29946,-0.00496895,0.360379,1.03981
352,1433,3.29882,-0.00559232,0.360775,1.03911
361,1424,3.30038,-0.00378112,0.359856,1.03851
370,1415,3.29986,-0.00408968,0.360471,1.03812
379,1406,3.29967,-0.00449164,0.359802,1.03781
388,1397,3.29907,-0.00511065,0.36021,1.03717
397,1388,3.29897,-0.00602179,0.36023,1.0365
406,1379,3.3,-0.00401333,0.359682,1.03575
415,1370,3.29993,-0.00457423,0.359702,1.03527
424,1361,3.29935,-0.0050877,0.360119,1.03484
433,1352,3.29868,-0.00559281,0.360098,1.03441
442,1343,3.30034,-0.00400199,0.359621,1.03349
451,1334,3.2997,-0.00398026,0.359574,1.03341
460,1325,3.2996,-0.00501348,0.360042,1.03288
469,1316,3.29864,-0.0055076,0.360476,1.03213
478,1307,3.30023,-0.00338737,0.359518,1.03163
487,1298,3.29937,-0.0045069,0.360381,1.03055
496,1289,3.29921,-0.00503241,0.360375,1.03012
505,1280,3.29877,-0.00562799,0.360368,1.02964
514,1271,3.29817,-0.00615399,0.360779,1.02908
523,1262,3.29957,-0.00408338,0.359831,1.02856
532,1253,3.29899,-0.0046217,0.359818,1.0281
541,1244,3.29942,-0.00555172,0.359825,1.02738
550,1235,3.29839,-0.00619652,0.360678,1.02666
559,1226,3.29899,-0.00422328,0.359731,1.02604
568,1217,3.29954,-0.00431798,0.359746,1.02603
577,1208,3.29923,-0.00498969,0.359716,1.02542
586,1199,3.29893,-0.00571166,0.359719,1.0249
595,1190,3.29924,-0.00413927,0.359611,1.02364
604,1181,3.29915,-0.004556,0.359622,1.02336
613,1172,3.29948,-0.00557248,0.359624,1.02261
622,1163,3.29835,-0.00628703,0.360038,1.02189
631,1154,3.29975,-0.00403642,0.359002,1.02142
640,1145,3.29882,-0.00475506,0.359488,1.02072
649,1136,3.29839,-0.00565651,0.359933,1.01993
658,1127,3.29841,-0.00608453,0.359482,1.0197
667,1118,3.3003,-0.00433442,0.358553,1.01896
676,1109,3.29979,-0.00501452,0.358987,1.01831
685,1100,3.29946,-0.00553781,0.359009,1.01798
694,1091,3.30002,-0.00403045,0.358995,1.01668
703,1082,3.29984,-0.00449839,0.358904,1.0163
712,1073,3.29911,-0.005637,0.359338,1.01534
721,1064,3.29778,-0.00634209,0.359741,1.01458
730,1055,3.29881,-0.00479489,0.35924,1.01199
739,1046,3.29796,-0.00535842,0.359661,1.01291
748,1037,3.29774,-0.0062164,0.360132,1.01226
757,1028,3.2991,-0.00457227,0.359142,1.01123
766,1019,3.29844,-0.00523724,0.359583,1.01061
775,1010,3.29836,-0.00620061,0.359664,1.00988
784,1001,3.29935,-0.00401774,0.358572,1.00934
793,992,3.29831,-0.00526541,0.359513,1.00819
802,983,3.29809,-0.00587479,0.359515,1.00774
811,974,3.29922,-0.00415845,0.359103,1.00679
820,965,3.29882,-0.00517679,0.358992,1.00623
829,956,3.29811,-0.0056713,0.35946,1.00557
838,947,3.29901,-0.00417474,0.358917,1.00431
847,938,3.29863,-0.00513495,0.358902,1.00351
856,929,3.29754,-0.00589475,0.359344,1.00284
865,920,3.29892,-0.00428572,0.358371,1.00181
874,911,3.29824,-0.00522559,0.359278,1.00094
883,902,3.297,-0.00637489,0.359699,0.999899
892,893,3.29858,-0.00422626,0.358762,0.999348
901,884,3.29784,-0.00567191,0.359199,0.998138
910,875,3.29696,-0.00643643,0.359635,0.997417
919,866,3.29809,-0.0046669,0.358766,0.996564
928,857,3.29763,-0.00579642,0.359127,0.995611
937,848,3.2973,-0.00480564,0.359537,0.99381
946,839,3.29723,-0.00587687,0.359393,0.993008
955,830,3.29811,-0.00406208,0.359081,0.992046
964,821,3.29745,-0.00541514,0.359492,0.990972
973,812,3.29647,-0.00638744,0.359923,0.990072
982,803,3.29682,-0.00468957,0.359901,0.988949
991,794,3.29697,-0.00581379,0.359498,0.988206
1000,785,3.2975,-0.00430174,0.358923,0.986984
1009,776,3.2967,-0.00542447,0.359367,0.986018
1018,767,3.2975,-0.0036916,0.358855,0.984932
1027,758,3.29572,-0.00540369,0.360242,0.983331
1036,749,3.29523,-0.00679933,0.360206,0.982207
1045,740,3.29607,-0.00498319,0.359704,0.981222
1054,731,3.29508,-0.00666351,0.360153,0.979843
1063,722,3.29574,-0.00513684,0.358992,0.978587
1072,713,3.29525,-0.00661856,0.360125,0.977445
1081,704,3.29569,-0.00504569,0.359619,0.976223
1090,695,3.29493,-0.00646202,0.360104,0.975116
1099,686,3.29531,-0.00498739,0.360081,0.97374
1108,677,3.29448,-0.00665726,0.360545,0.972404
1117,668,3.2955,-0.00533977,0.360072,0.971038
1126,659,3.29381,-0.00661921,0.361,0.969853
1135,650,3.29478,-0.00533097,0.360537,0.968532
1144,641,3.29495,-0.00426384,0.360503,0.965391
1153,632,3.29403,-0.00594636,0.360985,0.965429
1162,623,3.29449,-0.00430249,0.360467,0.964197
1171,614,3.29345,-0.00611458,0.36093,0.962714
1180,605,3.29421,-0.00450744,0.360478,0.961603
1189,596,3.29259,-0.00627789,0.361397,0.960002
1198,587,3.29321,-0.00509307,0.361608,0.958468
1207,578,3.29363,-0.00438987,0.360952,0.956579
1216,569,3.29244,-0.00566544,0.361417,0.955502
1225,560,3.29257,-0.00452919,0.361417,0.953807
1234,551,3.29089,-0.00686947,0.362385,0.951876
1243,542,3.29149,-0.00571305,0.361852,0.950304
1252,533,3.29191,-0.00463688,0.361446,0.94871
1261,524,3.2904,-0.00696876,0.362411,0.946798
1270,515,3.29106,-0.00561751,0.361957,0.945412
1279,506,3.29057,-0.00510773,0.362461,0.943104
1288,497,3.29041,-0.00470828,0.362506,0.940896
1297,488,3.28928,-0.00648987,0.363029,0.939579
1306,479,3.28939,-0.00437752,0.362573,0.937375
1315,470,3.28974,-0.00684889,0.361626,0.935037
1324,461,3.29006,-0.00326255,0.360837,0.932737
1333,452,3.29012,-0.00710144,0.359176,0.930698
1342,443,3.28851,-0.00663879,0.359664,0.928303
1351,434,3.28884,-0.0104853,0.358718,0.926311
1360,425,3.289,-0.00690977,0.357758,0.92393
1369,416,3.28939,-0.00977438,0.356827,0.921345
1378,407,3.29002,-0.00773597,0.355879,0.9192
1387,398,3.29061,-0.00254481,0.354455,0.916794
1396,389,3.28838,-0.0101164,0.355457,0.914297
1405,380,3.28829,-0.00814313,0.354484,0.912038
1414,371,3.28883,-0.00950517,0.353058,0.909305
1423,362,3.2887,-0.00745894,0.352606,0.907049
1432,353,3.2884,-0.00593579,0.352161,0.904404
1441,344,3.28848,-0.00754821,0.35122,0.90137
1450,335,3.28869,-0.00392622,0.34979,0.899087
1459,326,3.28905,-0.00690129,0.348858,0.896413
1468,317,3.28858,-0.00691489,0.348908,0.893923
1477,308,3.28844,-0.00325096,0.347974,0.891552
1486,299,3.28911,-0.00466927,0.346076,0.888675
1495,290,3.28866,-0.00939606,0.34612,0.886128
1504,281,3.28848,-0.00531365,0.345195,0.88271
1513,272,3.28829,-0.00947825,0.344309,0.88059
1522,263,3.28794,-0.00848392,0.344327,0.877484
1531,254,3.28839,-0.00848989,0.342438,0.87446
1540,245,3.28911,-0.00527257,0.34106,0.871916
1549,236,3.2883,-0.00378077,0.341078,0.869056
1558,227,3.28802,-0.00844707,0.340162,0.866597
1567,218,3.2875,-0.00437638,0.339751,0.863058
1576,209,3.28751,-0.00908174,0.338834,0.860578
1585,200,3.28708,-0.00499299,0.338013,0.857139
1594,191,3.28744,-0.00819705,0.336533,0.854462
1603,182,3.28662,-0.0114344,0.336783,0.851525
1612,173,3.28854,-0.00559805,0.334329,0.848374
1621,164,3.28834,-0.00722339,0.332909,0.845335
1630,155,3.2879,-0.0062694,0.332492,0.84232
1639,146,3.28783,-0.0100469,0.331612,0.839227
1648,137,3.2874,-0.00536194,0.330696,0.83606
1657,128,3.28646,-0.0107794,0.330861,0.833019
1666,119,3.28645,-0.00910626,0.329897,0.830567
1675,110,3.28606,-0.0114091,0.328998,0.827064
1684,101,3.28624,-0.00496777,0.326664,0.824036
1693,92,3.28693,-0.00884288,0.325834,0.821025
1702,83,3.28669,-0.00312965,0.324459,0.817275
1711,74,3.28681,-0.00624407,0.323112,0.814721
1720,65,3.28561,-0.00762919,0.321747,0.810573
1729,56,3.28546,-0.0108399,0.320395,0.807911
1738,47,3.28524,-0.00666012,0.319152,0.804553
1747,38,3.28394,-0.0105809,0.318661,0.801213
1756,29,3.28559,-0.00399661,0.316433,0.798414
1765,20,3.28481,-0.00965631,0.316061,0.795371
1774,11,3.28452,-0.00377664,0.314267,0.7918
1782,3,3.28409,-0.00700579,0.312943,0.789129