File: hust_correlation_analysis/matrices/HUST_1-6_cycle_feature_matrix.csv
cycle_number,rul,voltage,current,capacity,charge_capacity
1,1145,3.34606,-0.00131494,0.317888,1.06693
7,1139,3.32392,-0.00658649,0.33558,1.05173
13,1133,3.32419,-0.00662433,0.335813,1.04891
19,1127,3.3244,-0.00604732,0.335482,1.04695
25,1121,3.3247,-0.00513046,0.335235,1.0452
31,1115,3.32443,-0.0067277,0.335926,1.04401
37,1109,3.32516,-0.00512156,0.334562,1.04292
43,1103,3.32403,-0.00681769,0.335373,1.04141
49,1097,3.32508,-0.0054883,0.334731,1.04015
55,1091,3.32384,-0.00688396,0.335544,1.03884
61,1085,3.32312,-0.00805789,0.335956,1.03789
67,1079,3.32425,-0.00639024,0.334901,1.03726
73,1073,3.32408,-0.00739545,0.3349,1.03628
79,1067,3.3245,-0.00589332,0.334664,1.03496
85,1061,3.32439,-0.0068743,0.334668,1.03428
91,1055,3.32316,-0.0080288,0.3355,1.0332
97,1049,3.32473,-0.00581444,0.334435,1.03251
103,1043,3.32385,-0.00691474,0.334853,1.03173
109,1037,3.32342,-0.00801102,0.335269,1.03084
115,1031,3.32434,-0.00586125,0.334627,1.03011
121,1025,3.3238,-0.00694574,0.335034,1.02918
127,1019,3.32333,-0.00746708,0.335033,1.02881
133,1013,3.32441,-0.00579498,0.335126,1.02778
139,1007,3.32383,-0.00637632,0.334814,1.02721
145,1001,3.32309,-0.00751284,0.335232,1.02627
151,995,3.32424,-0.00535726,0.334608,1.02557
157,989,3.32347,-0.00639406,0.335017,1.02467
163,983,3.32325,-0.00691316,0.335016,1.02432
169,977,3.32205,-0.00758959,0.335853,1.02354
175,971,3.3237,-0.00584492,0.33479,1.02266
181,965,3.32245,-0.00657011,0.335637,1.02185
187,959,3.32257,-0.0075895,0.33564,1.02116
193,953,3.32161,-0.00823248,0.336063,1.02056
199,947,3.32331,-0.00593863,0.335003,1.02007
205,941,3.3229,-0.00647707,0.334999,1.01965
211,935,3.32206,-0.0071256,0.33541,1.01904
217,929,3.32194,-0.00748657,0.335914,1.01861
223,923,3.32243,-0.00606615,0.335189,1.01734
229,917,3.32218,-0.00658403,0.335194,1.017
235,911,3.3216,-0.00777438,0.335615,1.01604
241,905,3.32254,-0.00601766,0.334992,1.01503
247,899,3.3215,-0.00661623,0.335416,1.01445
253,893,3.32157,-0.00771855,0.33541,1.01369
259,887,3.32189,-0.00559573,0.335216,1.01275
265,881,3.32192,-0.00662645,0.335218,1.01207
271,875,3.32069,-0.0081088,0.336077,1.01076
277,869,3.32178,-0.00559739,0.335006,1.01035
283,863,3.3211,-0.00665429,0.335442,1.00978
289,857,3.32039,-0.00782056,0.335879,1.00856
295,851,3.32187,-0.00552028,0.334812,1.00802
301,845,3.32085,-0.0066948,0.335243,1.00706
307,839,3.32056,-0.00780236,0.335689,1.00621
313,833,3.31946,-0.00835692,0.336212,1.00567
319,827,3.3207,-0.00678728,0.33548,1.00444
325,821,3.32004,-0.00736859,0.335923,1.00392
331,815,3.31971,-0.00835881,0.335928,1.00331
337,809,3.3209,-0.00666444,0.335299,1.00216
343,803,3.31991,-0.00729626,0.335729,1.00156
349,797,3.31946,-0.00841826,0.336185,1.00074
355,791,3.31979,-0.00620506,0.336012,0.999823
361,785,3.32018,-0.00668496,0.335791,0.999406
367,779,3.31929,-0.00789076,0.335986,0.998615
373,773,3.32056,-0.00615682,0.335387,0.997599
379,767,3.31988,-0.00678779,0.335824,0.997033
385,761,3.31896,-0.00790294,0.336276,0.996157
391,755,3.32034,-0.00559239,0.335178,0.995505
397,749,3.31942,-0.0067416,0.33609,0.994497
403,743,3.31894,-0.00735423,0.336071,0.994052
409,737,3.31812,-0.00853752,0.33651,0.99307
415,731,3.31932,-0.00626524,0.335204,0.992449
421,725,3.3188,-0.00740649,0.33588,0.991559
427,719,3.31777,-0.00805808,0.336321,0.990953
433,713,3.31939,-0.00623778,0.335249,0.990027
439,707,3.31831,-0.00756487,0.336146,0.988869
445,701,3.31781,-0.00864594,0.336164,0.988201
451,695,3.31898,-0.00632379,0.335524,0.987419
457,689,3.31794,-0.00753562,0.335978,0.986459
463,683,3.3174,-0.00877872,0.336696,0.985549
469,677,3.31858,-0.00697065,0.335842,0.984503
475,671,3.31789,-0.00750999,0.335809,0.984075
481,665,3.31696,-0.00878104,0.336258,0.983068
487,659,3.31756,-0.00700219,0.336107,0.981835
493,653,3.31755,-0.00815734,0.336122,0.981124
499,647,3.31822,-0.00638636,0.335432,0.979917
505,641,3.31716,-0.00757358,0.335929,0.978995
511,635,3.3167,-0.00878161,0.336414,0.978125
517,629,3.31754,-0.00692953,0.335798,0.977057
523,623,3.31674,-0.00820062,0.336251,0.976059
529,617,3.31786,-0.00483597,0.335173,0.974815
535,611,3.31638,-0.00616121,0.3361,0.973661
541,605,3.31621,-0.00724982,0.335635,0.973114
547,599,3.31668,-0.0116102,0.335487,0.971585
553,593,3.31596,-0.00973773,0.335014,0.970551
559,587,3.31699,-0.00637373,0.333934,0.9693
565,581,3.31629,-0.00822422,0.334398,0.967952
571,575,3.31623,-0.0111323,0.333772,0.966418
577,569,3.31629,-0.0107673,0.333316,0.965528
583,563,3.31696,-0.00898836,0.332697,0.964373
589,557,3.31604,-0.00919467,0.33269,0.961452
595,551,3.31737,-0.00431461,0.331154,0.961483
601,545,3.31606,-0.0122353,0.331617,0.960224
607,539,3.31498,-0.0135655,0.33208,0.959228
613,533,3.316,-0.00922376,0.330996,0.957244
619,527,3.31628,-0.00744288,0.330852,0.955969
625,521,3.31566,-0.00776305,0.330385,0.954607
631,515,3.31638,-0.011224,0.329779,0.9528
637,509,3.31472,-0.0124841,0.330714,0.951723
643,503,3.31637,-0.00801936,0.3287,0.949871
649,497,3.31543,-0.00829125,0.328696,0.948602
655,491,3.31613,-0.00497857,0.327619,0.947259
661,485,3.31462,-0.0131715,0.328789,0.945949
667,479,3.31555,-0.0102908,0.328148,0.944109
673,473,3.31391,-0.0106803,0.327989,0.942443
679,467,3.31514,-0.00725939,0.32686,0.941162
685,461,3.31596,-0.00445102,0.325825,0.939486
691,455,3.31419,-0.0131708,0.326722,0.937684
697,449,3.315215,-0.00974113,0.325639,0.936384
703,443,3.31439,-0.00846483,0.325179,0.934752
709,437,3.31489,-0.00715425,0.324664,0.933275
715,431,3.31562,-0.00911878,0.323505,0.931269
721,425,3.31424,-0.011084,0.323949,0.929848
727,419,3.31472,-0.00824517,0.323354,0.928075
733,413,3.31376,-0.00761435,0.323378,0.925918
739,407,3.3148,-0.0104098,0.32183,0.924807
745,401,3.31469,-0.0098111,0.321676,0.922719
751,395,3.31393,-0.00691096,0.321215,0.920758
757,389,3.31455,-0.00568116,0.320627,0.91928
763,383,3.31448,-0.0108216,0.320481,0.917605
769,377,3.313,-0.010239,0.320939,0.9152
775,371,3.31432,-0.00727535,0.319165,0.913714
781,365,3.31405,-0.00449367,0.319284,0.911721
787,359,3.31316,-0.0127548,0.319274,0.910619
793,353,3.31375,-0.00884826,0.318196,0.908218
799,347,3.314,-0.00607957,0.3176,0.906329
805,341,3.31273,-0.00639884,0.317593,0.905086
811,335,3.31309,-0.0105836,0.316991,0.902616
817,329,3.31379,-0.00762984,0.315921,0.900944
823,323,3.31176,-0.0071177,0.316635,0.89851
829,317,3.31243,-0.00581832,0.31579,0.897011
835,311,3.3129,-0.00845178,0.314667,0.894664
841,305,3.31139,-0.00941596,0.315202,0.892632
847,299,3.31175,-0.0129734,0.314141,0.890988
853,293,3.31141,-0.00564719,0.315221,0.888857
859,287,3.31229,-0.0100267,0.313425,0.88677
865,281,3.31029,-0.00949727,0.313886,0.884314
871,275,3.31098,-0.00654758,0.312912,0.882626
877,269,3.31106,-0.0091451,0.311746,0.880224
883,263,3.31071,-0.00859971,0.312115,0.878019
889,257,3.31161,-0.00454923,0.31059,0.875823
895,251,3.30952,-0.0139508,0.311526,0.873962
901,245,3.30947,-0.00996572,0.310931,0.871364
907,239,3.31041,-0.00592075,0.309397,0.869134
913,233,3.30965,-0.0121146,0.309758,0.86689
919,227,3.31037,-0.00788215,0.308231,0.864745
925,221,3.30739,-0.00978678,0.309647,0.861894
931,215,3.30792,-0.0141309,0.308595,0.859906
937,209,3.30809,-0.0117666,0.308023,0.857724
943,203,3.30838,-0.00762467,0.306955,0.855318
949,197,3.3082,-0.00707053,0.306848,0.853214
955,191,3.30788,-0.0105286,0.306261,0.85027
961,185,3.30852,-0.00642953,0.305234,0.84791
967,179,3.30839,-0.0115177,0.304652,0.845359
973,173,3.30644,-0.010884,0.304632,0.84305
979,167,3.30638,-0.00850927,0.304055,0.840816
985,161,3.30583,-0.0138853,0.303965,0.838012
991,155,3.30654,-0.00958885,0.302673,0.83582
997,149,3.3063,-0.00613438,0.301862,0.832852
1003,143,3.30578,-0.0124367,0.302495,0.830835
1009,137,3.30594,-0.00897826,0.300694,0.82798
1015,131,3.30608,-0.00646582,0.300143,0.825837
1021,125,3.30538,-0.0118704,0.300809,0.823059
1027,119,3.30331,-0.0111948,0.300061,0.820815
1033,113,3.30299,-0.00773298,0.299495,0.817824
1039,107,3.30306,-0.0140689,0.298921,0.816011
1045,101,3.30313,-0.00875275,0.297882,0.812855
1051,95,3.30313,-0.00696286,0.297309,0.810229
1057,89,3.30274,-0.011698,0.296745,0.807993
1063,83,3.30294,-0.00805371,0.295706,0.805218
1069,77,3.30264,-0.0109768,0.294659,0.802789
1075,71,3.30225,-0.0110144,0.294583,0.800394
1081,65,3.30219,-0.00667553,0.293541,0.797963
1087,59,3.30172,-0.0103529,0.292985,0.795004
1093,53,3.30015,-0.0095662,0.292495,0.792941
1099,47,3.2993,-0.0151549,0.292432,0.790175
1105,41,3.29963,-0.0106981,0.290907,0.78792
1111,35,3.29861,-0.0108422,0.291327,0.785608
1117,29,3.2989,-0.0136597,0.289881,0.783133
1123,23,3.29893,-0.00928979,0.288765,0.780674
1129,17,3.298825,-0.0130237,0.28774,0.77788
1135,11,3.29839,-0.0104731,0.28719,0.775658
1141,5,3.29611,-0.0115067,0.28717,0.773806
1143,3,3.29697,-0.00759228,0.286641,0.772267