File: hust_correlation_analysis/matrices/HUST_8-4_cycle_feature_matrix.csv
cycle_number,rul,voltage,current,capacity,charge_capacity
1,1887,3.31914,-0.0120911,0.281361,1.01154
10,1878,3.30798,-0.0113627,0.284937,1.00468
19,1869,3.3082,-0.0132538,0.284509,1.00399
28,1860,3.30947,-0.011279,0.283154,1.00309
37,1851,3.30981,-0.0119825,0.282717,1.00296
46,1842,3.30909,-0.0133186,0.283131,1.00202
55,1833,3.30898,-0.0139346,0.283119,1.00168
64,1824,3.31061,-0.0121084,0.281776,1.00072
73,1815,3.31023,-0.0126948,0.28176,1.0004
82,1806,3.31026,-0.0140647,0.281776,0.999753
91,1797,3.31114,-0.0114021,0.280833,0.998948
100,1788,3.31129,-0.0121587,0.280828,0.998558
109,1779,3.31142,-0.0126807,0.280412,0.998533
118,1770,3.31065,-0.0134612,0.280832,0.997922
127,1761,3.31025,-0.0141175,0.280827,0.997585
136,1752,3.31212,-0.0114381,0.279479,0.997036
145,1743,3.31218,-0.0120748,0.279473,0.996691
154,1734,3.31137,-0.0128596,0.279888,0.996085
163,1725,3.31179,-0.0133542,0.279474,0.99609
172,1716,3.31162,-0.0139679,0.279468,0.995764
181,1707,3.31264,-0.0113856,0.278549,0.995196
190,1698,3.31214,-0.0121,0.278964,0.994376
199,1689,3.31235,-0.0121202,0.278551,0.994607
208,1680,3.31195,-0.0127561,0.278538,0.994506
217,1671,3.31167,-0.0134704,0.278956,0.993664
226,1662,3.31126,-0.0135989,0.278958,0.9936
235,1653,3.31083,-0.0142061,0.278958,0.993297
244,1644,3.31287,-0.0115665,0.277604,0.992705
253,1635,3.31269,-0.0115164,0.27759,0.992678
262,1626,3.31268,-0.0113612,0.277567,0.992679
271,1617,3.31207,-0.0122671,0.278003,0.992309
280,1608,3.31187,-0.0129062,0.277992,0.9917
289,1599,3.31241,-0.0134778,0.277576,0.991672
298,1590,3.312,-0.0135816,0.277579,0.991626
307,1581,3.31191,-0.0142603,0.277573,0.99127
316,1572,3.3138,-0.0115902,0.276224,0.990737
325,1563,3.31364,-0.0121584,0.276216,0.990422
334,1554,3.3133,-0.0122203,0.276217,0.990378
343,1545,3.31307,-0.0128636,0.276224,0.990095
352,1536,3.31302,-0.0135427,0.276225,0.98975
361,1527,3.31268,-0.0142083,0.276224,0.989407
370,1518,3.31447,-0.0115746,0.274876,0.988823
379,1509,3.31423,-0.0115976,0.274871,0.988809
388,1500,3.31392,-0.012272,0.274869,0.988453
397,1491,3.31348,-0.0129008,0.275296,0.987957
406,1482,3.31379,-0.0135426,0.274873,0.987831
415,1473,3.31375,-0.0141896,0.274868,0.9875
424,1464,3.3153,-0.0115243,0.273517,0.986933
433,1455,3.31494,-0.0122174,0.273935,0.986365
442,1446,3.3145,-0.0129403,0.274124,0.986019
451,1437,3.31429,-0.013548,0.273938,0.985719
460,1428,3.31394,-0.0142492,0.27394,0.985354
469,1419,3.31583,-0.01093,0.272586,0.985108
478,1410,3.31526,-0.0115589,0.272584,0.984797
487,1401,3.31512,-0.0121121,0.272574,0.984468
496,1392,3.31462,-0.0129636,0.272987,0.983827
505,1383,3.31511,-0.0135655,0.272577,0.983741
514,1374,3.31488,-0.0136106,0.272567,0.983703
523,1365,3.31657,-0.0109663,0.271214,0.983117
532,1356,3.31614,-0.0115778,0.27121,0.982794
541,1347,3.31599,-0.012244,0.271213,0.982455
550,1338,3.3156,-0.0129448,0.271212,0.982112
559,1329,3.31535,-0.013616,0.271207,0.981754
568,1320,3.31456,-0.0143793,0.27162,0.981142
577,1311,3.3166,-0.0116437,0.270272,0.980624
586,1302,3.31616,-0.0122811,0.270264,0.980284
595,1293,3.31629,-0.0129798,0.270266,0.979917
604,1284,3.31605,-0.0136627,0.270271,0.979594
613,1275,3.31573,-0.0143057,0.270277,0.979289
622,1266,3.31758,-0.0117101,0.268923,0.978654
631,1257,3.31744,-0.0123607,0.268921,0.97834
640,1248,3.31693,-0.0129448,0.26892,0.978042
649,1239,3.31665,-0.0136608,0.268919,0.977658
658,1230,3.31634,-0.0144789,0.26892,0.977258
667,1221,3.31787,-0.011647,0.267229,0.976718
676,1212,3.31734,-0.0123791,0.267969,0.976142
685,1203,3.31671,-0.0131296,0.267968,0.975749
694,1194,3.3167,-0.0138272,0.267582,0.976727
703,1185,3.31656,-0.0144198,0.267959,0.975057
712,1176,3.31809,-0.0124348,0.267021,0.973931
721,1167,3.31782,-0.013028,0.267023,0.973637
730,1158,3.31759,-0.0137119,0.266671,0.973261
739,1149,3.31731,-0.0143839,0.267023,0.972935
748,1140,3.31861,-0.0124576,0.266076,0.971745
757,1131,3.31855,-0.013085,0.266067,0.971396
766,1122,3.31793,-0.0133028,0.266065,0.971285
775,1113,3.31782,-0.0145171,0.266069,0.970671
784,1104,3.31934,-0.0117499,0.264981,0.970079
793,1095,3.31859,-0.0126042,0.265118,0.969453
802,1086,3.31846,-0.0138763,0.265115,0.968795
811,1077,3.31763,-0.0145323,0.265524,0.968259
820,1068,3.31961,-0.0125131,0.264164,0.96729
829,1059,3.31872,-0.0133146,0.264565,0.966643
838,1050,3.31838,-0.0139873,0.26497,0.966314
847,1041,3.32009,-0.011921,0.262825,0.965393
856,1032,3.3193,-0.0126984,0.26362,0.964779
865,1023,3.31847,-0.014078,0.264031,0.963873
874,1014,3.32033,-0.0111909,0.26226,0.963567
883,1005,3.3195,-0.0125458,0.262748,0.962652
892,996,3.31841,-0.0141307,0.263495,0.961452
901,987,3.32052,-0.0112266,0.26209,0.961141
910,978,3.31944,-0.0126804,0.262128,0.960177
919,969,3.31887,-0.0140726,0.262537,0.959247
928,960,3.31811,-0.0147552,0.262537,0.958917
937,951,3.31932,-0.0127093,0.261575,0.957737
946,942,3.31894,-0.0134065,0.261573,0.957356
955,933,3.31799,-0.0148635,0.261994,0.956433
964,924,3.31969,-0.0126916,0.260619,0.955528
973,915,3.31848,-0.0135261,0.261026,0.954858
982,906,3.32027,-0.0113866,0.25967,0.953984
991,897,3.31946,-0.0127564,0.260072,0.953054
1000,888,3.31885,-0.0142499,0.260177,0.952067
1009,879,3.31929,-0.0123134,0.259947,0.950644
1018,870,3.31961,-0.0128502,0.259527,0.950571
1027,861,3.31865,-0.0143075,0.25994,0.949613
1036,852,3.32044,-0.0122378,0.258559,0.948629
1045,843,3.31886,-0.0137829,0.259399,0.947458
1054,834,3.31847,-0.0150704,0.259398,0.946805
1063,825,3.31912,-0.0129703,0.258442,0.945645
1072,816,3.3183,-0.0144337,0.258858,0.944712
1081,807,3.31922,-0.0125709,0.257892,0.943385
1090,798,3.31907,-0.0137447,0.257892,0.942811
1099,789,3.31822,-0.0151554,0.258305,0.941884
1108,780,3.31991,-0.0131235,0.256917,0.940845
1117,771,3.31823,-0.0147346,0.257757,0.939637
1126,762,3.31922,-0.0125802,0.256792,0.93846
1135,753,3.31886,-0.013953,0.256788,0.937757
1144,744,3.31964,-0.0119066,0.255821,0.936532
1153,735,3.31823,-0.0141019,0.256664,0.935023
1162,726,3.31708,-0.0155213,0.257087,0.934114
1171,717,3.31885,-0.0133818,0.255695,0.933139
1180,708,3.31752,-0.0157207,0.256546,0.931561
1189,699,3.31877,-0.0134269,0.255145,0.930627
1198,690,3.3176,-0.0137584,0.255145,0.929483
1207,681,3.31806,-0.0117014,0.254592,0.927774
1216,672,3.31676,-0.0192499,0.254581,0.926441
1225,663,3.3179,-0.0142702,0.253368,0.924369
1234,654,3.31883,-0.0129168,0.252215,0.922791
1243,645,3.31797,-0.0187231,0.251786,0.921309
1252,636,3.31861,-0.0165631,0.250809,0.920101
1261,627,3.31743,-0.0168655,0.250809,0.918724
1270,618,3.31855,-0.013597,0.249409,0.91702
1279,609,3.31677,-0.0159489,0.25025,0.915469
1288,600,3.31761,-0.0198805,0.24884,0.913893
1297,591,3.31846,-0.014821,0.247442,0.911819
1306,582,3.31777,-0.0132177,0.247015,0.910317
1315,573,3.31802,-0.011874,0.24645,0.908487
1324,564,3.31717,-0.0196352,0.246024,0.907332
1333,555,3.31798,-0.0164201,0.245035,0.905387
1342,546,3.31886,-0.0130224,0.24363,0.903715
1351,537,3.31718,-0.0217289,0.24405,0.901745
1360,528,3.31745,-0.0184859,0.243061,0.899798
1369,519,3.31827,-0.0169369,0.242053,0.898237
1378,510,3.317,-0.0142722,0.241642,0.896009
1387,501,3.31704,-0.0211755,0.241065,0.893909
1396,492,3.31793,-0.0176928,0.239882,0.892223
1405,483,3.31839,-0.0131956,0.238235,0.889814
1414,474,3.31661,-0.0144443,0.238657,0.886308
1423,465,3.31739,-0.0185809,0.237238,0.886177
1432,456,3.31672,-0.0180965,0.237076,0.883754
1441,447,3.31798,-0.0133462,0.235254,0.881671
1450,438,3.31799,-0.0107389,0.234664,0.879167
1459,429,3.31533,-0.0216243,0.235488,0.87732
1468,420,3.31597,-0.0169329,0.234075,0.874977
1477,411,3.3168,-0.0130048,0.232651,0.872233
1486,402,3.31586,-0.0202708,0.232474,0.869869
1495,393,3.31707,-0.0154758,0.230637,0.867735
1504,384,3.3174,-0.0128147,0.229625,0.865465
1513,375,3.31445,-0.0227932,0.230445,0.86289
1522,366,3.31464,-0.0200724,0.229437,0.860632
1531,357,3.31516,-0.0161046,0.228013,0.85793
1540,348,3.31506,-0.0213274,0.226985,0.855649
1549,339,3.31544,-0.0187044,0.225967,0.853329
1558,330,3.31514,-0.0167444,0.22536,0.850497
1567,321,3.31556,-0.0118374,0.223915,0.848131
1576,312,3.31532,-0.0200622,0.223507,0.845425
1585,303,3.31543,-0.0172853,0.222276,0.843371
1594,294,3.31487,-0.015337,0.221672,0.840544
1603,285,3.31326,-0.0152321,0.221665,0.838107
1612,276,3.31243,-0.0216597,0.221053,0.835226
1621,267,3.313,-0.0187284,0.2196,0.833223
1630,258,3.31282,-0.0146375,0.218562,0.830223
1639,249,3.31247,-0.0230755,0.217941,0.827766
1648,240,3.31262,-0.020152,0.216901,0.825524
1657,231,3.31231,-0.0182603,0.216269,0.822632
1666,222,3.31261,-0.0224403,0.214812,0.819925
1675,213,3.31213,-0.0205374,0.214183,0.817051
1684,204,3.31269,-0.0154352,0.212717,0.814657
1693,195,3.31273,-0.0133398,0.211666,0.812053
1702,186,3.31267,-0.0198256,0.210614,0.809461
1711,177,3.31296,-0.0178039,0.209961,0.806814
1720,168,3.31222,-0.0156574,0.208917,0.80375
1729,159,3.31232,-0.0222393,0.207876,0.801397
1738,150,3.31241,-0.0201488,0.206788,0.798786
1747,141,3.31299,-0.0149426,0.205316,0.79639
1756,132,3.31303,-0.0127715,0.204248,0.793793
1765,123,3.3132,-0.0193764,0.203169,0.791172
1774,114,3.31349,-0.0165083,0.202102,0.788855
1783,105,3.31308,-0.0143171,0.201437,0.786029
1792,96,3.31058,-0.0255788,0.201829,0.783647
1801,87,3.31055,-0.0233518,0.200758,0.781091
1810,78,3.31064,-0.0203541,0.199674,0.779039
1819,69,3.31143,-0.0182131,0.198732,0.776145
1828,60,3.31148,-0.0250553,0.197504,0.773586
1837,51,3.31197,-0.0229118,0.196421,0.770964
1846,42,3.31265,-0.0196176,0.194919,0.768964
1855,33,3.31313,-0.0174607,0.193828,0.766338
1864,24,3.31341,-0.0244599,0.192725,0.763733
1873,15,3.31388,-0.022186,0.19163,0.761155
1882,6,3.31377,-0.0214987,0.190814,0.758951
1885,3,3.31361,-0.0200187,0.190525,0.758497