File: hust_correlation_analysis/matrices/HUST_9-2_cycle_feature_matrix.csv
cycle_number,rul,voltage,current,capacity,charge_capacity
1,2145,3.30519,0.0153458,0.333627,1.0596
11,2135,3.29478,-0.0132334,0.345544,1.04388
21,2125,3.29878,-0.0114374,0.341437,1.04887
31,2115,3.30023,-0.0117474,0.339678,1.05058
41,2105,3.30197,-0.0111243,0.337972,1.05161
51,2095,3.30174,-0.0122609,0.337956,1.04938
61,2085,3.30174,-0.0128116,0.337537,1.05065
71,2075,3.30322,-0.0116576,0.336452,1.04972
81,2065,3.30313,-0.0121672,0.336436,1.0491
91,2055,3.30243,-0.0138215,0.336885,1.04793
101,2045,3.30384,-0.0116755,0.335774,1.04729
111,2035,3.30313,-0.0127608,0.336644,1.04644
121,2025,3.30274,-0.0139148,0.336608,1.04546
131,2015,3.30379,-0.0117708,0.335526,1.04491
141,2005,3.30332,-0.0128192,0.335946,1.04407
151,1995,3.30246,-0.0140174,0.336791,1.04295
161,1985,3.30365,-0.0117497,0.335703,1.04248
171,1975,3.30374,-0.0127814,0.335772,1.04176
181,1965,3.30274,-0.0134226,0.336114,1.04116
191,1955,3.30272,-0.0140595,0.336119,1.04076
201,1945,3.30369,-0.0123216,0.335446,1.03974
211,1935,3.30348,-0.0122987,0.335408,1.03965
221,1925,3.30235,-0.0125429,0.335808,1.03924
231,1915,3.30205,-0.0136157,0.336224,1.03836
241,1905,3.30356,-0.0119199,0.335145,1.0375
251,1895,3.30344,-0.0125133,0.335145,1.03712
261,1885,3.30266,-0.0136399,0.335583,1.03625
271,1875,3.30251,-0.0141036,0.335573,1.03595
281,1865,3.30337,-0.0120227,0.334906,1.03513
291,1855,3.30306,-0.0125165,0.334911,1.03509
301,1845,3.30215,-0.0131265,0.335324,1.03423
311,1835,3.30254,-0.0141354,0.335357,1.03362
321,1825,3.30314,-0.0120202,0.334658,1.0328
331,1815,3.30333,-0.0124822,0.334683,1.03256
341,1805,3.30312,-0.0136105,0.335115,1.03169
351,1795,3.30318,-0.0141323,0.335105,1.03133
361,1785,3.30406,-0.0119657,0.334432,1.03036
371,1775,3.30373,-0.0125299,0.33445,1.03022
381,1765,3.30407,-0.012038,0.334026,1.02944
391,1755,3.30279,-0.0136844,0.334813,1.02928
401,1745,3.30425,-0.0105241,0.333782,1.02807
411,1735,3.30327,-0.0120996,0.334197,1.02811
421,1725,3.30345,-0.0131129,0.3342,1.02745
431,1715,3.30336,-0.013101,0.334191,1.02745
441,1705,3.30307,-0.0143234,0.334635,1.02655
451,1695,3.30419,-0.0120284,0.333525,1.02599
461,1685,3.30396,-0.012576,0.333532,1.02566
471,1675,3.3029,-0.0131659,0.333951,1.02506
481,1665,3.30275,-0.0138505,0.333954,1.02461
491,1655,3.30445,-0.0120603,0.333289,1.02362
501,1645,3.30409,-0.0120916,0.333281,1.02357
511,1635,3.3041,-0.0117176,0.333308,1.02259
521,1625,3.30363,-0.0122816,0.333751,1.02221
531,1615,3.30441,-0.0107878,0.333076,1.02086
541,1605,3.30389,-0.0112779,0.333073,1.02053
551,1595,3.30384,-0.0118156,0.33307,1.02019
561,1585,3.30379,-0.0123352,0.333134,1.01985
571,1575,3.30324,-0.0128851,0.333073,1.01949
581,1565,3.30398,-0.0106637,0.332387,1.01868
591,1555,3.30361,-0.0127218,0.332818,1.01849
601,1545,3.30377,-0.0124904,0.332838,1.0174
611,1535,3.30346,-0.0129347,0.332832,1.01709
621,1525,3.30483,-0.0105988,0.33174,1.0166
631,1515,3.30431,-0.0118252,0.332173,1.01563
641,1505,3.30421,-0.011908,0.332144,1.01552
651,1495,3.30358,-0.013046,0.332601,1.01468
661,1485,3.30422,-0.0121827,0.331908,1.01425
671,1475,3.30393,-0.0113564,0.332384,1.01356
681,1465,3.30398,-0.0118639,0.331927,1.01322
691,1455,3.30322,-0.0130245,0.332284,1.01228
701,1445,3.30376,-0.0124365,0.332115,1.01155
711,1435,3.30465,-0.0113233,0.331264,1.01136
721,1425,3.30398,-0.0120556,0.331687,1.0107
731,1415,3.30338,-0.0132196,0.332131,1.00979
741,1405,3.30514,-0.0107761,0.331032,1.00934
751,1395,3.30472,-0.0113244,0.331017,1.00895
761,1385,3.30361,-0.0126159,0.331911,1.00784
771,1375,3.30341,-0.0131923,0.331904,1.00745
781,1365,3.30419,-0.01096,0.331235,1.00665
791,1355,3.30415,-0.0120094,0.331229,1.00597
801,1345,3.30342,-0.013997,0.331665,1.00582
811,1335,3.30269,-0.0133668,0.331669,1.00492
821,1325,3.30442,-0.0125339,0.330995,1.00451
831,1315,3.30397,-0.0120953,0.33102,1.00356
841,1305,3.30309,-0.0132956,0.331443,1.00261
851,1295,3.30402,-0.0110679,0.3308,1.00186
861,1285,3.30409,-0.0115653,0.330785,1.0015
871,1275,3.30332,-0.0127632,0.33122,1.00055
881,1265,3.30484,-0.0104157,0.330129,0.999812
891,1255,3.30434,-0.0115356,0.330571,0.999147
901,1245,3.30303,-0.0128207,0.331479,0.998051
911,1235,3.30261,-0.0133992,0.331455,0.997615
921,1225,3.30345,-0.0116512,0.33081,0.996541
931,1215,3.30388,-0.0121778,0.33035,0.996331
941,1205,3.30258,-0.0135062,0.331699,0.995164
951,1195,3.30352,-0.0126193,0.330565,0.994726
961,1185,3.30281,-0.0139166,0.331014,0.993739
971,1175,3.30265,-0.0134735,0.331478,0.992777
981,1165,3.30267,-0.0134171,0.33126,0.991516
991,1155,3.30279,-0.0128671,0.330824,0.990774
1001,1145,3.30388,-0.0107048,0.330156,0.989873
1011,1135,3.30283,-0.011855,0.330603,0.98898
1021,1125,3.30179,-0.0130744,0.331055,0.988308
1031,1115,3.30298,-0.011301,0.330874,0.986957
1041,1105,3.30215,-0.0123839,0.330874,0.986408
1051,1095,3.30187,-0.0135965,0.330871,0.985366
1061,1085,3.30267,-0.0118693,0.330677,0.98408
1071,1075,3.30194,-0.0131686,0.331133,0.983103
1081,1065,3.30266,-0.0113756,0.330483,0.981965
1091,1055,3.3019,-0.0125452,0.330939,0.981076
1101,1045,3.30078,-0.0138967,0.331502,0.980096
1111,1035,3.30175,-0.0120632,0.330751,0.978955
1121,1025,3.30067,-0.0133581,0.33119,0.977952
1131,1015,3.30185,-0.011468,0.330552,0.976905
1141,1005,3.30076,-0.0127305,0.331466,0.975938
1151,995,3.30144,-0.01263,0.330801,0.974578
1161,985,3.30122,-0.0121602,0.330347,0.97401
1171,975,3.29942,-0.0156657,0.331725,0.972582
1181,965,3.30039,-0.0138679,0.331091,0.971465
1191,955,3.29964,-0.0135527,0.331157,0.970384
1201,945,3.30087,-0.0121941,0.330442,0.968954
1211,935,3.29941,-0.014031,0.331392,0.967523
1221,925,3.2998,-0.0124402,0.331223,0.966084
1231,915,3.2992,-0.0136514,0.331721,0.965256
1241,905,3.30022,-0.0116546,0.330592,0.964319
1251,895,3.29915,-0.0137034,0.331545,0.962766
1261,885,3.30013,-0.0122791,0.330904,0.961369
1271,875,3.29914,-0.0136057,0.331377,0.960384
1281,865,3.29922,-0.0123303,0.331229,0.958768
1291,855,3.29815,-0.0137617,0.331675,0.957644
1301,845,3.29905,-0.0119447,0.33104,0.956474
1311,835,3.29728,-0.0139595,0.331995,0.954898
1321,825,3.29807,-0.0142843,0.331838,0.953524
1331,815,3.29763,-0.0139409,0.331863,0.952551
1341,805,3.29771,-0.0129215,0.331705,0.950657
1351,795,3.29651,-0.0146937,0.332186,0.949432
1361,785,3.29739,-0.0133518,0.331548,0.947924
1371,775,3.29546,-0.0149812,0.332539,0.946635
1381,765,3.29609,-0.0152235,0.33237,0.945233
1391,755,3.29718,-0.0116929,0.331268,0.943993
1401,745,3.29608,-0.0136423,0.331753,0.942643
1411,735,3.2959,-0.0129652,0.332128,0.940465
1421,725,3.29491,-0.0150546,0.332633,0.939068
1431,715,3.29565,-0.013692,0.332004,0.937577
1441,705,3.29579,-0.012528,0.331878,0.935789
1451,695,3.29449,-0.0144265,0.332383,0.934499
1461,685,3.29525,-0.0129808,0.331719,0.932964
1471,675,3.29359,-0.015263,0.332753,0.931329
1481,665,3.29331,-0.0156119,0.333121,0.929659
1491,655,3.29452,-0.0127633,0.332014,0.927976
1501,645,3.29271,-0.0153861,0.333027,0.926109
1511,635,3.29355,-0.0141407,0.33241,0.924509
1521,625,3.29395,-0.0127876,0.332322,0.92282
1531,615,3.29277,-0.0131128,0.332309,0.921359
1541,605,3.29318,-0.0175727,0.331702,0.919217
1551,595,3.2937,-0.0162772,0.331075,0.917629
1561,585,3.29208,-0.0157037,0.331058,0.915392
1571,575,3.29271,-0.0194562,0.329929,0.913837
1581,565,3.29361,-0.0134588,0.328265,0.911454
1591,555,3.29378,-0.0181393,0.327645,0.909172
1601,545,3.29211,-0.0184089,0.32762,0.907705
1611,535,3.29262,-0.0143402,0.326478,0.905314
1621,525,3.29366,-0.011296,0.325353,0.903644
1631,515,3.29386,-0.0140371,0.324208,0.901353
1641,505,3.29191,-0.0169812,0.325723,0.899373
1651,495,3.29367,-0.0159543,0.322053,0.897351
1661,485,3.29317,-0.0155176,0.322453,0.894714
1671,475,3.29381,-0.0181808,0.3208,0.892879
1681,465,3.29214,-0.0193925,0.321327,0.890822
1691,455,3.29334,-0.0132383,0.319166,0.888611
1701,445,3.2935,-0.0179433,0.318558,0.886381
1711,435,3.29409,-0.0173092,0.317943,0.884688
1721,425,3.29439,-0.0142113,0.317317,0.882561
1731,415,3.29251,-0.0194225,0.316798,0.879957
1741,405,3.29321,-0.0169696,0.315718,0.87791
1751,395,3.29341,-0.0145453,0.315055,0.87567
1761,385,3.29361,-0.012171,0.314441,0.873417
1771,375,3.29448,-0.0130924,0.312298,0.871206
1781,365,3.29421,-0.0167302,0.31168,0.86829
1791,355,3.29313,-0.0177043,0.31169,0.86654
1801,345,3.29309,-0.0206834,0.310555,0.864116
1811,335,3.29295,-0.0202256,0.310447,0.86192
1821,325,3.2941,-0.0127174,0.308321,0.859093
1831,315,3.29443,-0.0174194,0.307196,0.857033
1841,305,3.29477,-0.0131365,0.306096,0.854715
1851,295,3.29447,-0.0186377,0.305478,0.852093
1861,285,3.29509,-0.0142602,0.303857,0.849892
1871,275,3.29313,-0.0153861,0.304348,0.847838
1881,265,3.2926,-0.019111,0.303732,0.844905
1891,255,3.29288,-0.0173365,0.303116,0.842277
1901,245,3.29297,-0.0202854,0.302004,0.83995
1911,235,3.2932,-0.0184603,0.301391,0.837346
1921,225,3.29324,-0.0195737,0.299774,0.834834
1931,215,3.29318,-0.0196948,0.299677,0.832405
1941,205,3.29354,-0.0141509,0.298061,0.829482
1951,195,3.29354,-0.0189468,0.29695,0.827438
1961,185,3.29412,-0.0133695,0.295348,0.824563
1971,175,3.29395,-0.0170626,0.294244,0.821816
1981,165,3.29348,-0.0154349,0.294132,0.818971
1991,155,3.29376,-0.0189935,0.292534,0.816468
2001,145,3.29452,-0.0145208,0.290938,0.814267
2011,135,3.29451,-0.010909,0.289786,0.811459
2021,125,3.29419,-0.0145729,0.288752,0.808779
2031,115,3.29408,-0.0109477,0.288106,0.805937
2041,105,3.29376,-0.0146792,0.286537,0.801778
2051,95,3.29365,-0.0192779,0.285474,0.800062
2061,85,3.29353,-0.0116644,0.283395,0.796934
2071,75,3.29317,-0.0153903,0.282311,0.794227
2081,65,3.29282,-0.0198516,0.281226,0.791129
2091,55,3.29294,-0.0172508,0.280138,0.789044
2101,45,3.29251,-0.0135734,0.279545,0.78612
2111,35,3.29204,-0.0162529,0.277989,0.784229
2121,25,3.29155,-0.0155725,0.277367,0.780845
2131,15,3.29166,-0.0161839,0.275764,0.777435
2141,5,3.29099,-0.0124981,0.274285,0.774629
2143,3,3.29066,-0.0131842,0.274285,0.774285