File: hust_correlation_analysis/matrices/HUST_3-4_cycle_feature_matrix.csv
cycle_number,rul,voltage,current,capacity,charge_capacity
1,1768,3.32825,-0.0208579,0.271025,0.98631
9,1760,3.31669,-0.0206684,0.273855,0.979088
17,1752,3.31646,-0.0236372,0.27384,0.977893
25,1744,3.31793,-0.0214723,0.272285,0.976973
33,1736,3.3177,-0.0236473,0.272279,0.976107
41,1728,3.31665,-0.024322,0.272253,0.975756
49,1720,3.31854,-0.0221838,0.270691,0.974776
57,1712,3.31853,-0.0236196,0.270677,0.97417
65,1704,3.31777,-0.024247,0.270671,0.9739
73,1696,3.31952,-0.0222994,0.269573,0.972594
81,1688,3.31898,-0.0229142,0.269559,0.972322
89,1680,3.31891,-0.0242991,0.269539,0.971728
97,1672,3.3203,-0.0215784,0.267711,0.971102
105,1664,3.31979,-0.02275,0.268469,0.970329
113,1656,3.31954,-0.0237073,0.268452,0.969904
121,1648,3.31915,-0.0246194,0.268483,0.969635
129,1640,3.32104,-0.021554,0.267499,0.969026
137,1632,3.31998,-0.0223398,0.267369,0.968405
145,1624,3.31968,-0.0231542,0.267371,0.968082
153,1616,3.31969,-0.0238542,0.267378,0.96784
161,1608,3.31848,-0.0246508,0.267829,0.967218
169,1600,3.32095,-0.021744,0.266263,0.96654
177,1592,3.32078,-0.0224671,0.266271,0.96628
185,1584,3.31945,-0.0240195,0.267202,0.965145
193,1576,3.31945,-0.0239699,0.267312,0.965386
201,1568,3.318495,-0.0249533,0.267195,0.964755
209,1560,3.32065,-0.0218774,0.265643,0.964206
217,1552,3.32013,-0.022647,0.266103,0.96362
225,1544,3.31994,-0.0234916,0.266102,0.963281
233,1536,3.31973,-0.0241301,0.266097,0.963008
241,1528,3.31906,-0.0248434,0.266549,0.96243
249,1520,3.31821,-0.025025,0.266552,0.962363
257,1512,3.32074,-0.0220331,0.264988,0.961735
265,1504,3.32034,-0.0226958,0.264988,0.961473
273,1496,3.31973,-0.0235341,0.26545,0.96087
281,1488,3.31966,-0.0243255,0.26544,0.960515
289,1480,3.3193,-0.0241914,0.2654,0.960448
297,1472,3.31836,-0.0269531,0.266648,0.959982
305,1464,3.31966,-0.0241536,0.265203,0.958776
313,1456,3.31968,-0.0248193,0.265202,0.958937
321,1448,3.31936,-0.0255251,0.265193,0.95839
329,1440,3.31917,-0.0263476,0.265211,0.958129
337,1432,3.319,-0.025001,0.264747,0.957726
345,1424,3.32049,-0.0240664,0.264092,0.956898
353,1416,3.32083,-0.024045,0.263626,0.957176
361,1408,3.32039,-0.0238031,0.263653,0.956133
369,1400,3.31985,-0.0236508,0.263639,0.956162
377,1392,3.31874,-0.0264381,0.264554,0.955676
385,1384,3.31831,-0.0272061,0.264561,0.955394
393,1376,3.3205,-0.0222615,0.262533,0.954615
401,1368,3.32038,-0.0230306,0.262524,0.954291
409,1360,3.31969,-0.0238457,0.262976,0.953666
417,1352,3.31943,-0.0246224,0.262996,0.953406
425,1344,3.31911,-0.0253212,0.263002,0.953164
433,1336,3.32073,-0.0223786,0.261781,0.952412
441,1328,3.32065,-0.0231459,0.261865,0.951845
449,1320,3.3204,-0.0240137,0.261891,0.951576
457,1312,3.3201,-0.0240599,0.261892,0.951572
465,1304,3.31964,-0.0247482,0.261891,0.951301
473,1296,3.31885,-0.0255441,0.262344,0.950676
481,1288,3.32076,-0.0223995,0.260776,0.95012
489,1280,3.31989,-0.0234215,0.261242,0.94945
497,1272,3.31951,-0.0240584,0.261228,0.949154
505,1264,3.31925,-0.024894,0.261227,0.948814
513,1256,3.31892,-0.0257318,0.261247,0.94857
521,1248,3.32048,-0.0227203,0.260129,0.947649
529,1240,3.32034,-0.0234821,0.260121,0.947314
537,1232,3.32003,-0.0242118,0.260114,0.947012
545,1224,3.31969,-0.0249865,0.260131,0.946782
553,1216,3.31893,-0.0257705,0.260895,0.946106
561,1208,3.32095,-0.0226651,0.258971,0.945428
569,1200,3.32091,-0.0234871,0.258984,0.945144
577,1192,3.31999,-0.0243649,0.259438,0.944495
585,1184,3.3197,-0.0250879,0.259427,0.944179
593,1176,3.31941,-0.0258992,0.259423,0.94385
601,1168,3.3213,-0.0225241,0.257839,0.943346
609,1160,3.32055,-0.0236477,0.258313,0.942665
617,1152,3.32031,-0.0244698,0.258293,0.942306
625,1144,3.3198,-0.025151,0.258617,0.942032
633,1136,3.32165,-0.0229655,0.25718,0.940804
641,1128,3.32129,-0.0236394,0.257182,0.940547
649,1120,3.32098,-0.0244944,0.257163,0.94015
657,1112,3.32002,-0.0253522,0.257621,0.939503
665,1104,3.31961,-0.0262021,0.257641,0.939256
673,1096,3.32146,-0.0229779,0.256042,0.938655
681,1088,3.32063,-0.0239296,0.256496,0.937953
689,1080,3.32058,-0.0254485,0.256492,0.937356
697,1072,3.31925,-0.0263997,0.256981,0.936792
705,1064,3.32129,-0.0230793,0.255379,0.936222
713,1056,3.32062,-0.0247977,0.255842,0.935267
721,1048,3.32004,-0.0253524,0.255843,0.93506
729,1040,3.31946,-0.0263699,0.255848,0.934694
737,1032,3.32116,-0.0240756,0.25471,0.933429
745,1024,3.32065,-0.0248863,0.25471,0.933119
753,1016,3.3197,-0.0259076,0.255172,0.932431
761,1008,3.32116,-0.0234876,0.254367,0.931208
769,1000,3.32072,-0.0241988,0.254023,0.930915
777,992,3.32006,-0.0258571,0.254488,0.929979
785,984,3.31948,-0.0266374,0.254483,0.929673
793,976,3.32108,-0.0244447,0.25334,0.928366
801,968,3.32044,-0.0252395,0.253336,0.928055
809,960,3.31949,-0.0268873,0.253803,0.927126
817,952,3.32133,-0.0235978,0.252174,0.926478
825,944,3.32028,-0.0253474,0.252655,0.925567
833,936,3.31937,-0.0271348,0.253125,0.924605
841,928,3.32122,-0.0236714,0.251495,0.924021
849,920,3.32105,-0.0252242,0.251496,0.923435
857,912,3.3194,-0.0272866,0.252448,0.922111
865,904,3.32119,-0.0238489,0.250821,0.921543
873,896,3.31994,-0.0256452,0.251289,0.920557
881,888,3.31887,-0.0274289,0.251757,0.919579
889,880,3.3209,-0.0239886,0.250104,0.918929
897,872,3.31981,-0.0258696,0.250588,0.917969
905,864,3.31914,-0.0273577,0.250585,0.917643
913,856,3.32063,-0.025038,0.249417,0.916065
921,848,3.31959,-0.0266388,0.249891,0.915181
929,840,3.32116,-0.0243853,0.248737,0.913891
937,832,3.32005,-0.0260683,0.249209,0.912953
945,824,3.31911,-0.0269658,0.249507,0.912605
953,816,3.32068,-0.0243943,0.248021,0.911338
961,808,3.31952,-0.0263442,0.248504,0.910345
969,800,3.31875,-0.0278253,0.248796,0.909527
977,792,3.31976,-0.0255002,0.24779,0.908104
985,784,3.31934,-0.0272639,0.247807,0.907515
993,776,3.32062,-0.0248004,0.246636,0.90625
1001,768,3.3192,-0.0265405,0.247099,0.905257
1009,760,3.31878,-0.02825,0.247088,0.904587
1017,752,3.32021,-0.0257683,0.24592,0.903349
1025,744,3.31862,-0.0283717,0.246897,0.901846
1033,736,3.31976,-0.0260104,0.245704,0.900484
1041,728,3.31843,-0.0279095,0.246183,0.899478
1049,720,3.3205,-0.0253173,0.24451,0.898505
1057,712,3.31906,-0.0270659,0.245,0.897593
1065,704,3.32057,-0.0243843,0.243806,0.896356
1073,696,3.31919,-0.0268596,0.244281,0.895119
1081,688,3.31789,-0.0288675,0.244769,0.894089
1089,680,3.31904,-0.026447,0.243566,0.892731
1097,672,3.31782,-0.029022,0.244053,0.891495
1105,664,3.3191,-0.0266191,0.242849,0.890124
1113,656,3.3177,-0.0284045,0.243335,0.88916
1121,648,3.31959,-0.0257921,0.241625,0.888115
1129,640,3.31788,-0.0286107,0.242618,0.886543
1137,632,3.31883,-0.0260691,0.24141,0.885228
1145,624,3.31768,-0.0287884,0.241898,0.883922
1153,616,3.31863,-0.0261865,0.240674,0.882581
1161,608,3.31691,-0.0291168,0.2417,0.881041
1169,600,3.31834,-0.0273406,0.240548,0.879372
1177,592,3.31706,-0.0290289,0.240458,0.878747
1185,584,3.31784,-0.0275851,0.23973,0.876671
1193,576,3.31656,-0.0302467,0.240231,0.875423
1201,568,3.31767,-0.0276456,0.23901,0.874109
1209,560,3.31559,-0.0306842,0.240012,0.872411
1217,552,3.3169,-0.0287478,0.238776,0.870803
1225,544,3.31724,-0.0271729,0.238036,0.868546
1233,536,3.3159,-0.0300697,0.23855,0.867439
1241,528,3.31713,-0.0282842,0.23731,0.865779
1249,520,3.31488,-0.0313293,0.238336,0.864126
1257,512,3.31594,-0.0364529,0.236573,0.862517
1265,504,3.31696,-0.034798,0.235328,0.860813
1273,496,3.31533,-0.0330499,0.235333,0.859132
1281,488,3.3168,-0.0286548,0.233557,0.857468
1289,480,3.31519,-0.0282992,0.233544,0.856408
1297,472,3.31616,-0.0360667,0.232283,0.854751
1305,464,3.31709,-0.0326689,0.231037,0.852525
1313,456,3.31585,-0.0306482,0.230524,0.851202
1321,448,3.31636,-0.0290621,0.229749,0.849084
1329,440,3.31413,-0.039254,0.229738,0.847761
1337,432,3.31582,-0.0348926,0.227955,0.846074
1345,424,3.31737,-0.0304803,0.22618,0.844438
1353,416,3.3155,-0.0285346,0.226237,0.842766
1361,408,3.31628,-0.0364836,0.224882,0.841302
1369,400,3.31702,-0.032384,0.223592,0.838979
1377,392,3.315,-0.033979,0.224094,0.837
1385,384,3.3164,-0.0295621,0.222318,0.835379
1393,376,3.31716,-0.0251907,0.221013,0.833344
1401,368,3.31507,-0.039134,0.221503,0.831719
1409,360,3.31573,-0.0349147,0.2202,0.829639
1417,352,3.31653,-0.0305943,0.218899,0.827618
1425,344,3.31521,-0.0293709,0.218398,0.82604
1433,336,3.31517,-0.0377114,0.217584,0.823998
1441,328,3.31659,-0.0332138,0.215768,0.82231
1449,320,3.31475,-0.0321502,0.21576,0.820328
1457,312,3.31603,-0.0276063,0.213947,0.818661
1465,304,3.31591,-0.037045,0.213117,0.816312
1473,296,3.31418,-0.0375199,0.21311,0.815002
1481,288,3.31555,-0.0314343,0.211288,0.812653
1489,280,3.31627,-0.0269424,0.209953,0.810626
1497,272,3.31388,-0.0414145,0.210445,0.80904
1505,264,3.31469,-0.037118,0.209102,0.806948
1513,256,3.31558,-0.0309844,0.207265,0.804582
1521,248,3.31683,-0.0272257,0.205421,0.802618
1529,240,3.31368,-0.0410199,0.206961,0.800947
1537,232,3.31577,-0.0345573,0.204065,0.799016
1545,224,3.31572,-0.0314292,0.20319,0.79623
1553,216,3.31664,-0.0372305,0.201332,0.794558
1561,208,3.31368,-0.0417159,0.202298,0.792569
1569,200,3.31561,-0.0351478,0.199952,0.790606
1577,192,3.31703,-0.0305845,0.198091,0.788879
1585,184,3.31716,-0.0376256,0.196708,0.786559
1593,176,3.31459,-0.0394349,0.19718,0.784551
1601,168,3.3164,-0.0328159,0.194834,0.782777
1609,160,3.31701,-0.0294659,0.193434,0.780138
1617,152,3.31681,-0.039399,0.192506,0.77646
1625,144,3.31551,-0.0379602,0.192574,0.776238
1633,136,3.3164,-0.0317434,0.190141,0.773818
1641,128,3.31691,-0.0415733,0.188719,0.771849
1649,120,3.31813,-0.0351156,0.18683,0.769467
1657,112,3.3194,-0.0313694,0.184942,0.767465
1665,104,3.31646,-0.0332182,0.185598,0.765503
1673,96,3.31775,-0.0404629,0.183513,0.763517
1681,88,3.31887,-0.0364628,0.18187,0.761528
1689,80,3.32061,-0.0298089,0.179258,0.759525
1697,72,3.32091,-0.0383087,0.177799,0.756818
1705,64,3.3217,-0.0318766,0.1759,0.754414
1713,56,3.32272,-0.040308,0.174003,0.752149
1721,48,3.32376,-0.036384,0.172115,0.750162
1729,40,3.3249,-0.0309876,0.170178,0.74741
1737,32,3.3221,-0.0448524,0.17017,0.745532
1745,24,3.32424,-0.0362778,0.167404,0.743193
1753,16,3.32462,-0.0338261,0.165929,0.740514
1761,8,3.32908,-0.0367029,0.162353,0.737872
1766,3,3.32744,-0.0343767,0.161692,0.736524