File: hust_correlation_analysis/matrices/HUST_7-6_cycle_feature_matrix.csv
cycle_number,rul,voltage,current,capacity,charge_capacity
1,1421,3.31166,-0.0088175,0.309987,1.02567
8,1414,3.30142,-0.011012,0.314236,1.01997
15,1407,3.30178,-0.0126779,0.313806,1.01915
22,1400,3.30286,-0.0109902,0.312865,1.0182
29,1393,3.30258,-0.0115526,0.311807,1.01789
36,1386,3.30204,-0.0128405,0.312584,1.01693
43,1379,3.302,-0.0133825,0.312132,1.01669
50,1372,3.30364,-0.0110834,0.310975,1.01612
57,1365,3.30353,-0.0122359,0.310967,1.01541
64,1358,3.30317,-0.0128438,0.310962,1.01503
71,1351,3.30461,-0.0106124,0.309824,1.01448
78,1344,3.30492,-0.0116146,0.30982,1.01387
85,1337,3.30498,-0.0122108,0.309813,1.01348
92,1330,3.30464,-0.0128461,0.309822,1.01312
99,1323,3.30422,-0.0133585,0.30984,1.01286
106,1316,3.30573,-0.0110704,0.308651,1.0122
113,1309,3.30577,-0.0115992,0.308656,1.0119
120,1302,3.30528,-0.0122605,0.309089,1.01138
127,1295,3.30496,-0.0128343,0.3093,1.01099
134,1288,3.30496,-0.0133657,0.309068,1.01063
141,1281,3.30581,-0.0110845,0.308339,1.00991
148,1274,3.30561,-0.0117014,0.308343,1.00953
155,1267,3.30544,-0.0117718,0.30834,1.00975
162,1260,3.30533,-0.0122211,0.308343,1.00923
169,1253,3.30523,-0.0128371,0.308572,1.00864
176,1246,3.30491,-0.0134381,0.308338,1.00847
183,1239,3.30625,-0.0111663,0.307743,1.00766
190,1232,3.30638,-0.0111308,0.307151,1.00779
197,1225,3.30613,-0.0116778,0.307569,1.00732
204,1218,3.30658,-0.0123036,0.307568,1.00694
211,1211,3.30675,-0.0122602,0.307157,1.00715
218,1204,3.30637,-0.0128105,0.307163,1.00682
225,1197,3.30562,-0.0129751,0.307556,1.00649
232,1190,3.30541,-0.0132001,0.307528,1.00626
239,1183,3.30441,-0.0148704,0.307923,1.00616
246,1176,3.30654,-0.012766,0.307181,1.00542
253,1169,3.30579,-0.0127668,0.307182,1.0054
260,1162,3.30601,-0.0123532,0.306803,1.00464
267,1155,3.30556,-0.0124291,0.307013,1.00457
274,1148,3.30539,-0.0130568,0.306901,1.00418
281,1141,3.30521,-0.0136334,0.306802,1.00389
288,1134,3.30691,-0.0112329,0.305634,1.00335
295,1127,3.30661,-0.0112212,0.305636,1.00333
302,1120,3.30628,-0.0119215,0.305639,1.00292
309,1113,3.3066,-0.0124493,0.305648,1.00264
316,1106,3.3067,-0.0130043,0.305636,1.00226
323,1099,3.30672,-0.0135596,0.305636,1.00192
330,1092,3.30765,-0.0112322,0.304918,1.00123
337,1085,3.30772,-0.0118278,0.304893,1.00107
344,1078,3.30793,-0.0117998,0.304468,1.00097
351,1071,3.30784,-0.0123394,0.304493,1.0007
358,1064,3.30726,-0.0130386,0.304991,1.00014
365,1057,3.30708,-0.0136198,0.304914,0.999771
372,1050,3.30844,-0.0112135,0.303746,0.999209
379,1043,3.30855,-0.011158,0.303758,0.99929
386,1036,3.30797,-0.0117876,0.30407,0.998696
393,1029,3.30762,-0.0118914,0.304148,0.998582
400,1022,3.30703,-0.0130724,0.304592,0.997786
407,1015,3.30665,-0.0136608,0.304603,0.997448
414,1008,3.30872,-0.0106563,0.303006,0.997378
421,1001,3.30853,-0.0112173,0.303082,0.997048
428,994,3.30847,-0.0117831,0.303011,0.998027
435,987,3.3081,-0.0118612,0.302982,0.996581
442,980,3.30794,-0.0124572,0.302929,0.996191
449,973,3.30816,-0.0130234,0.302972,0.995846
456,966,3.30802,-0.0136612,0.302967,0.99543
463,959,3.30917,-0.0113015,0.302214,0.994658
470,952,3.30938,-0.011816,0.301808,0.994548
477,945,3.30918,-0.0123354,0.301813,0.994234
484,938,3.30879,-0.0131152,0.302227,0.993574
491,931,3.30841,-0.0136695,0.302229,0.99328
498,924,3.30949,-0.0111323,0.301494,0.992659
505,917,3.30967,-0.0112331,0.301059,0.992927
512,910,3.30857,-0.0119663,0.301459,0.992032
519,903,3.30834,-0.0131775,0.301905,0.991235
526,896,3.30845,-0.0136942,0.301479,0.991038
533,889,3.30766,-0.0136853,0.301476,0.991018
540,882,3.3092,-0.011969,0.300743,0.989925
547,875,3.3091,-0.0125051,0.300746,0.98987
554,868,3.309,-0.0131322,0.300738,0.989219
561,861,3.30891,-0.0137696,0.300734,0.988809
568,854,3.31064,-0.0111325,0.299567,0.988359
575,847,3.30997,-0.0119826,0.299989,0.987683
582,840,3.31044,-0.0124679,0.299566,0.987536
589,833,3.31014,-0.0130742,0.299563,0.98713
596,826,3.30971,-0.0136846,0.29956,0.986762
603,819,3.31088,-0.0112861,0.298798,0.985974
610,812,3.31049,-0.0119087,0.298801,0.985848
617,805,3.31027,-0.0125464,0.298903,0.985188
624,798,3.30984,-0.0137617,0.29928,0.984287
631,791,3.31163,-0.0107235,0.297626,0.984232
638,784,3.31048,-0.0119926,0.298475,0.983172
645,777,3.30998,-0.0125489,0.29847,0.982832
652,770,3.30967,-0.0131593,0.298537,0.982432
659,763,3.31036,-0.0115396,0.298141,0.98108
666,756,3.31048,-0.0120016,0.297744,0.980933
673,749,3.30972,-0.0132942,0.298149,0.978495
680,742,3.30905,-0.0138422,0.298126,0.979632
687,735,3.30998,-0.0115779,0.297355,0.978962
694,728,3.31041,-0.0120617,0.297172,0.978629
701,721,3.30974,-0.0133866,0.297361,0.977613
708,714,3.30951,-0.0140117,0.297359,0.977223
715,707,3.3104,-0.0121532,0.296614,0.976133
722,700,3.31011,-0.0127888,0.296622,0.975788
729,693,3.30959,-0.0140254,0.296624,0.975015
736,686,3.311,-0.0121525,0.295867,0.973915
743,679,3.31058,-0.0128151,0.295873,0.973503
750,672,3.3099,-0.0141494,0.296275,0.972483
757,665,3.31111,-0.011846,0.295136,0.971883
764,658,3.31051,-0.0133399,0.295544,0.970561
771,651,3.30985,-0.0140681,0.295539,0.970323
778,644,3.31092,-0.0123623,0.294792,0.969139
785,637,3.3107,-0.0134824,0.294806,0.968498
792,630,3.31192,-0.0116371,0.294062,0.967384
799,623,3.31084,-0.012871,0.294675,0.966452
806,616,3.31185,-0.0110872,0.293732,0.965284
813,609,3.3109,-0.0123699,0.294162,0.964373
820,602,3.30991,-0.0135804,0.294567,0.963438
827,595,3.31059,-0.011727,0.293809,0.962271
834,588,3.30945,-0.0130528,0.294234,0.961312
841,581,3.31042,-0.0118666,0.293487,0.959731
848,574,3.30974,-0.0131003,0.293463,0.958905
855,567,3.30865,-0.0138831,0.29388,0.958267
862,560,3.30984,-0.0124934,0.293134,0.956855
869,553,3.30904,-0.0144669,0.293564,0.955503
876,546,3.31047,-0.0125282,0.292389,0.954548
883,539,3.30983,-0.0144324,0.292823,0.953298
890,532,3.31079,-0.0126218,0.292086,0.952123
897,525,3.30988,-0.0144602,0.292067,0.950953
904,518,3.31044,-0.0131794,0.291726,0.949227
911,511,3.31148,-0.0119675,0.291475,0.947737
918,504,3.31014,-0.0133506,0.291433,0.946748
925,497,3.31095,-0.0103819,0.290245,0.945099
932,490,3.30912,-0.013434,0.291107,0.944219
939,483,3.30929,-0.0106838,0.290366,0.942309
946,476,3.30805,-0.0164094,0.290358,0.940278
953,469,3.30919,-0.0134677,0.289177,0.938607
960,462,3.31095,-0.0154032,0.28715,0.937027
967,455,3.30953,-0.0162865,0.287568,0.935066
974,448,3.31034,-0.0118529,0.285954,0.933142
981,441,3.31101,-0.0105566,0.285207,0.931638
988,434,3.31072,-0.0155799,0.284372,0.930377
995,427,3.31115,-0.0126871,0.283605,0.928731
1002,420,3.3119,-0.0170438,0.282423,0.926365
1009,413,3.30996,-0.0174325,0.282834,0.924697
1016,406,3.31074,-0.0144977,0.281671,0.92303
1023,399,3.31196,-0.0105004,0.28007,0.922185
1030,392,3.30952,-0.0192519,0.280906,0.919276
1037,385,3.31022,-0.0185851,0.280169,0.917439
1044,378,3.31071,-0.0145986,0.278998,0.915088
1051,371,3.31117,-0.0100068,0.277816,0.913083
1058,364,3.30985,-0.0175033,0.277813,0.911311
1065,357,3.30954,-0.0153601,0.277497,0.908903
1072,350,3.31012,-0.0114284,0.276326,0.906491
1079,343,3.31058,-0.015667,0.27514,0.904498
1086,336,3.31106,-0.0117516,0.273966,0.90207
1093,329,3.30952,-0.0194652,0.27397,0.900242
1100,322,3.30992,-0.0153768,0.272786,0.897878
1107,315,3.31099,-0.0130052,0.271625,0.895848
1114,308,3.31113,-0.0164386,0.270463,0.893113
1121,301,3.31162,-0.0124347,0.269649,0.890708
1128,294,3.31236,-0.0100348,0.268126,0.88844
1135,287,3.30976,-0.0186109,0.268948,0.886062
1142,280,3.31078,-0.0144829,0.267385,0.883938
1149,273,3.31076,-0.0195631,0.266632,0.881376
1156,266,3.31088,-0.0173297,0.265876,0.87908
1163,259,3.31088,-0.0149983,0.265124,0.87685
1170,252,3.31153,-0.0166538,0.263551,0.873985
1177,245,3.31138,-0.0160171,0.263212,0.87194
1184,238,3.31155,-0.0126358,0.262045,0.86913
1191,231,3.31132,-0.0102338,0.261287,0.866892
1198,224,3.30899,-0.0188881,0.261703,0.864504
1205,217,3.30858,-0.0148431,0.260933,0.861874
1212,210,3.30886,-0.0182592,0.259768,0.859166
1219,203,3.3102,-0.0147645,0.258206,0.856568
1226,196,3.31006,-0.0131559,0.257879,0.85385
1233,189,3.30965,-0.017769,0.257118,0.851613
1240,182,3.30901,-0.016071,0.256355,0.848939
1247,175,3.3087,-0.0124719,0.255601,0.844549
1254,168,3.30965,-0.0142616,0.254046,0.843176
1261,161,3.30988,-0.0126085,0.253297,0.840532
1268,154,3.30935,-0.0180003,0.252536,0.837896
1275,147,3.30884,-0.0155374,0.251778,0.835669
1282,140,3.30804,-0.0145697,0.251863,0.832391
1289,133,3.3093,-0.0162374,0.249877,0.829667
1296,126,3.30945,-0.0126717,0.248711,0.826872
1303,119,3.30835,-0.01998,0.248788,0.824324
1310,112,3.30756,-0.0184216,0.248476,0.821535
1317,105,3.30858,-0.0135389,0.246891,0.818253
1324,98,3.30797,-0.0192166,0.246556,0.815441
1331,91,3.30728,-0.019298,0.246118,0.813021
1338,84,3.30728,-0.013686,0.245069,0.810003
1345,77,3.30961,-0.0163583,0.243155,0.80682
1352,70,3.30967,-0.0126156,0.241994,0.804071
1359,63,3.30856,-0.0182608,0.241654,0.8013
1366,56,3.30972,-0.0135063,0.240113,0.798026
1373,49,3.3087,-0.0198705,0.239755,0.794863
1380,42,3.30788,-0.0180347,0.239411,0.792125
1387,35,3.30964,-0.0131679,0.237428,0.788897
1394,28,3.30776,-0.0151825,0.237922,0.786534
1401,21,3.30796,-0.0170581,0.236334,0.783268
1408,14,3.30755,-0.0160381,0.235976,0.780336
1415,7,3.30691,-0.014108,0.235225,0.777743
1419,3,3.30746,-0.0183903,0.234439,0.775871