File: hust_correlation_analysis/matrices/HUST_4-5_cycle_feature_matrix.csv
cycle_number,rul,voltage,current,capacity,charge_capacity
1,1563,3.31808,-0.00729108,0.312775,1.03813
9,1555,3.30788,-0.00731039,0.31683,1.03148
17,1547,3.30694,-0.00972857,0.316659,1.02988
25,1539,3.30874,-0.00853504,0.315153,1.02881
33,1531,3.30825,-0.00985626,0.31564,1.02807
41,1523,3.30947,-0.00751744,0.31384,1.02746
49,1515,3.31013,-0.00575466,0.313114,1.02653
57,1507,3.30883,-0.00984476,0.313832,1.02606
65,1499,3.31037,-0.0104868,0.312842,1.02545
73,1491,3.30958,-0.0117602,0.313267,1.02452
81,1483,3.30977,-0.0128487,0.313257,1.02387
89,1475,3.3092,-0.01345,0.313263,1.02352
97,1467,3.31083,-0.0111077,0.312075,1.02321
105,1459,3.31095,-0.0123331,0.312015,1.02203
113,1451,3.31003,-0.0128958,0.312485,1.02168
121,1443,3.30958,-0.0134967,0.312486,1.02132
129,1435,3.31073,-0.0111661,0.311715,1.02055
137,1427,3.31046,-0.0118137,0.311723,1.02019
145,1419,3.31035,-0.0122797,0.311711,1.01989
153,1411,3.31026,-0.0128209,0.311139,1.01957
161,1403,3.31183,-0.0104699,0.310515,1.01898
169,1395,3.31122,-0.00814281,0.310739,1.01843
177,1387,3.31112,-0.00866295,0.310734,1.01811
185,1379,3.31061,-0.00928064,0.310655,1.01776
193,1371,3.30978,-0.0100624,0.311279,1.01711
201,1363,3.31077,-0.013532,0.310895,1.01683
209,1355,3.31154,-0.00814424,0.309963,1.01627
217,1347,3.31087,-0.0088158,0.310381,1.01569
225,1339,3.31146,-0.0124105,0.310122,1.01531
233,1331,3.31025,-0.00941766,0.310385,1.01532
241,1323,3.30996,-0.0133011,0.310007,1.01476
249,1315,3.31007,-0.0137037,0.310822,1.01451
257,1307,3.31069,-0.0143342,0.310116,1.01414
265,1299,3.31153,-0.0118574,0.309395,1.0122
273,1291,3.31209,-0.0124566,0.308924,1.01327
281,1283,3.31091,-0.0131102,0.309812,1.01267
289,1275,3.31066,-0.0136475,0.309816,1.01238
297,1267,3.31211,-0.0106739,0.308614,1.01213
305,1259,3.31144,-0.0114381,0.309044,1.01151
313,1251,3.31189,-0.0117997,0.309213,1.01148
321,1243,3.31104,-0.0125204,0.309048,1.01089
329,1235,3.3107,-0.0131433,0.309049,1.01051
337,1227,3.31228,-0.0112564,0.308278,1.00945
345,1219,3.31186,-0.0113142,0.308269,1.0094
353,1211,3.31168,-0.0119838,0.308868,1.00902
361,1203,3.31159,-0.0124715,0.30827,1.00873
369,1195,3.31065,-0.0131825,0.308702,1.00815
377,1187,3.31196,-0.00767121,0.307753,1.00761
385,1179,3.31251,-0.0112562,0.307501,1.00725
393,1171,3.31212,-0.0118926,0.307496,1.00687
401,1163,3.31284,-0.00703571,0.306981,1.00579
409,1155,3.31244,-0.00759445,0.306977,1.00545
417,1147,3.31306,-0.00819858,0.306506,1.00509
425,1139,3.31232,-0.00892046,0.306934,1.0045
433,1131,3.31326,-0.00638882,0.3062,1.00396
441,1123,3.31267,-0.00647096,0.306208,1.00394
449,1115,3.3113,-0.0101564,0.306934,1.00378
457,1107,3.31227,-0.00770491,0.306204,1.0032
465,1099,3.31149,-0.014421,0.30668,1.00303
473,1091,3.31103,-0.0150648,0.307111,1.0025
481,1083,3.31208,-0.0126271,0.306374,1.00215
489,1075,3.31178,-0.0132156,0.306375,1.00154
497,1067,3.31282,-0.00837672,0.305377,1.00041
505,1059,3.3127,-0.00896841,0.305379,1.00006
513,1051,3.31234,-0.0127089,0.305597,0.999626
521,1043,3.31241,-0.0132324,0.305602,0.999344
529,1035,3.31293,-0.00771407,0.304651,0.998765
537,1027,3.31276,-0.00823152,0.304644,0.998452
545,1019,3.31293,-0.00893203,0.304608,0.9979
553,1011,3.31243,-0.0101248,0.305037,0.997039
561,1003,3.31353,-0.00775769,0.304265,0.996225
569,995,3.31307,-0.00838393,0.304261,0.995845
577,987,3.31294,-0.00890319,0.304263,0.995565
585,979,3.31265,-0.00961866,0.304274,0.995158
593,971,3.31377,-0.00778769,0.303725,0.994044
601,963,3.31339,-0.00838245,0.303496,0.993669
609,955,3.31306,-0.00900961,0.303502,0.993308
617,947,3.31282,-0.00964834,0.303502,0.992933
625,939,3.31379,-0.00789389,0.302727,0.99174
633,931,3.31351,-0.00845332,0.302725,0.991398
641,923,3.31267,-0.00911256,0.303229,0.99084
649,915,3.31188,-0.0103986,0.304168,0.9899
657,907,3.31378,-0.00843571,0.302372,0.989009
665,899,3.31321,-0.00911279,0.302377,0.98863
673,891,3.31259,-0.0103574,0.302804,0.987708
681,883,3.31397,-0.00782075,0.301598,0.98715
689,875,3.31374,-0.00904408,0.301591,0.986401
697,867,3.31282,-0.00982914,0.302025,0.985782
705,859,3.31438,-0.0078347,0.30082,0.9849
713,851,3.31368,-0.00915025,0.30125,0.983962
721,843,3.31312,-0.0097624,0.301252,0.983613
729,835,3.31418,-0.00788603,0.300474,0.982454
737,827,3.31339,-0.00920041,0.3009,0.98152
745,819,3.31302,-0.0103697,0.300904,0.980829
753,811,3.31393,-0.00807527,0.300136,0.979953
761,803,3.313,-0.0093697,0.30056,0.979205
769,795,3.31475,-0.00725543,0.299355,0.978175
777,787,3.31373,-0.00865114,0.299781,0.977185
785,779,3.31443,-0.00663937,0.29904,0.976253
793,771,3.31441,-0.00797965,0.299013,0.975338
801,763,3.31334,-0.00927104,0.299441,0.974395
809,755,3.31247,-0.01055,0.299869,0.97346
817,747,3.31387,-0.00863819,0.299101,0.972335
825,739,3.31332,-0.00981781,0.299096,0.97164
833,731,3.31426,-0.00799819,0.298325,0.970462
841,723,3.31352,-0.00985241,0.298755,0.969193
849,715,3.31416,-0.00809162,0.297986,0.967967
857,707,3.31364,-0.00935858,0.297988,0.967243
865,699,3.31258,-0.0106978,0.298423,0.966278
873,691,3.31368,-0.00879592,0.297658,0.965155
881,683,3.31249,-0.0101198,0.298094,0.964213
889,675,3.31359,-0.00886473,0.297328,0.962674
897,667,3.3125,-0.0101406,0.297761,0.961751
905,659,3.31391,-0.00810822,0.296749,0.960818
913,651,3.31243,-0.0101247,0.297428,0.959326
921,643,3.31397,-0.00818081,0.296217,0.958358
929,635,3.31289,-0.0101479,0.296653,0.957017
937,627,3.31339,-0.00896333,0.296318,0.955251
945,619,3.31246,-0.0102769,0.296321,0.954491
953,611,3.313,-0.0089901,0.295987,0.952788
961,603,3.31185,-0.0109836,0.296436,0.951466
969,595,3.3123,-0.00975592,0.296118,0.949731
977,587,3.31287,-0.00781204,0.29535,0.948572
985,579,3.31171,-0.00983321,0.29579,0.947227
993,571,3.31238,-0.00910662,0.295477,0.945192
1001,563,3.31108,-0.0111203,0.295922,0.943848
1009,555,3.31179,-0.00983039,0.295143,0.942273
1017,547,3.31248,-0.00855133,0.294439,0.940696
1025,539,3.31124,-0.0105405,0.294819,0.939386
1033,531,3.31047,-0.0211289,0.294614,0.937908
1041,523,3.31044,-0.0170628,0.293864,0.935557
1049,515,3.3112,-0.0122568,0.292816,0.934063
1057,507,3.3117,-0.00822265,0.291588,0.931669
1065,499,3.31235,-0.0143525,0.29082,0.929804
1073,491,3.31251,-0.0113825,0.290041,0.927905
1081,483,3.31147,-0.0105546,0.28959,0.926017
1089,475,3.31154,-0.01516,0.288814,0.923741
1097,467,3.31225,-0.0120292,0.287589,0.922105
1105,459,3.3127,-0.00795227,0.286366,0.919974
1113,451,3.31104,-0.00899844,0.286818,0.917718
1121,443,3.31154,-0.0134423,0.285586,0.915694
1129,435,3.31203,-0.00933851,0.28437,0.913337
1137,427,3.31243,-0.00690607,0.283593,0.911118
1145,419,3.31234,-0.0114965,0.282817,0.908885
1153,411,3.31118,-0.0107096,0.282365,0.906953
1161,403,3.31081,-0.0160788,0.282162,0.904157
1169,395,3.31178,-0.011843,0.280367,0.901957
1177,387,3.31221,-0.00758414,0.279146,0.899629
1185,379,3.31189,-0.014009,0.278817,0.897529
1193,371,3.31226,-0.01056,0.277596,0.894748
1201,363,3.31276,-0.00629348,0.276373,0.892403
1209,355,3.31093,-0.0144142,0.276364,0.890578
1217,347,3.31152,-0.0108902,0.275153,0.887845
1225,339,3.31134,-0.0155827,0.274373,0.8856
1233,331,3.31094,-0.0139012,0.274012,0.882786
1241,323,3.31201,-0.0095199,0.27237,0.880621
1249,315,3.31186,-0.0149333,0.271589,0.878011
1257,307,3.31217,-0.0106857,0.270364,0.875612
1265,299,3.31246,-0.0070983,0.269152,0.872859
1273,291,3.31238,-0.0125432,0.268369,0.870239
1281,283,3.31134,-0.0153974,0.268228,0.868085
1289,275,3.31186,-0.0136153,0.266817,0.865293
1297,267,3.31012,-0.0137374,0.266811,0.862537
1305,259,3.3121,-0.00642733,0.264821,0.859575
1313,251,3.31045,-0.0155137,0.264809,0.857235
1321,243,3.31049,-0.0166718,0.264356,0.854968
1329,235,3.31088,-0.0093032,0.26281,0.852251
1337,227,3.31091,-0.014862,0.262035,0.849658
1345,219,3.31069,-0.0112319,0.261251,0.846709
1353,211,3.31046,-0.0167807,0.26047,0.844139
1361,203,3.31195,-0.0112414,0.25892,0.841311
1369,195,3.31066,-0.00945978,0.258474,0.838406
1377,187,3.31094,-0.0206843,0.258036,0.836007
1385,179,3.31052,-0.0113705,0.256486,0.833064
1393,171,3.31138,-0.0132321,0.255597,0.830456
1401,163,3.31003,-0.015219,0.255354,0.827668
1409,155,3.31067,-0.0102094,0.253838,0.824427
1417,147,3.31011,-0.0152477,0.252915,0.819179
1425,139,3.31048,-0.0191258,0.252621,0.819709
1433,131,3.30999,-0.010387,0.251352,0.816229
1441,123,3.31215,-0.0122885,0.249361,0.813466
1449,115,3.30942,-0.0123999,0.249791,0.810694
1457,107,3.31137,-0.0144218,0.247795,0.807871
1465,99,3.31158,-0.0124882,0.247017,0.805292
1473,91,3.30989,-0.0171876,0.247386,0.802188
1481,83,3.31129,-0.0153151,0.245448,0.799362
1489,75,3.3116,-0.0113949,0.244356,0.79664
1497,67,3.31152,-0.00944333,0.24345,0.794019
1505,59,3.31162,-0.00750661,0.242664,0.79142
1513,51,3.31166,-0.01224,0.24146,0.788326
1521,43,3.3119,-0.00836534,0.240237,0.785513
1529,35,3.31156,-0.0143226,0.239454,0.782946
1537,27,3.31181,-0.0111176,0.238239,0.779828
1545,19,3.31105,-0.0172656,0.237992,0.777016
1553,11,3.31117,-0.0161156,0.237098,0.774046
1561,3,3.31174,-0.0140425,0.235876,0.771659