File: hust_correlation_analysis/matrices/HUST_4-8_cycle_feature_matrix.csv
cycle_number,rul,voltage,current,capacity,charge_capacity
1,1708,3.31301,0.0295673,0.299239,1.04896
9,1700,3.30118,-0.012067,0.314751,1.02272
17,1692,3.30458,-0.0129227,0.311979,1.03113
25,1684,3.30685,-0.0116456,0.30983,1.03543
33,1676,3.30917,-0.011036,0.307338,1.03694
41,1668,3.31092,-0.0104971,0.306109,1.03784
49,1660,3.31152,-0.0105216,0.305501,1.03822
57,1652,3.31096,-0.0110357,0.304875,1.03808
65,1644,3.31203,-0.0111313,0.304465,1.03819
73,1636,3.3114,-0.0123985,0.304462,1.03743
81,1628,3.3131,-0.0098743,0.302856,1.03717
89,1620,3.31303,-0.0104486,0.302841,1.03679
97,1612,3.31318,-0.0115812,0.30285,1.03616
105,1604,3.31381,-0.00990456,0.302037,1.03499
113,1596,3.31375,-0.00986967,0.302028,1.035
121,1588,3.31376,-0.0110822,0.302051,1.03432
129,1580,3.31231,-0.0122543,0.302835,1.03302
137,1572,3.31408,-0.00992831,0.301612,1.03265
145,1564,3.31411,-0.0104258,0.301638,1.03238
153,1556,3.31302,-0.0116349,0.302451,1.0313
161,1548,3.31262,-0.0122074,0.302452,1.03096
169,1540,3.31436,-0.00986334,0.301202,1.03021
177,1532,3.31326,-0.0104655,0.30206,1.02969
185,1524,3.31263,-0.0117782,0.302463,1.02871
193,1516,3.31256,-0.0117519,0.302609,1.02871
201,1508,3.3144,-0.0100043,0.301784,1.02778
209,1500,3.31338,-0.0104861,0.301648,1.02729
217,1492,3.31289,-0.0111118,0.301795,1.02692
225,1484,3.31297,-0.0118204,0.30205,1.02629
233,1476,3.31249,-0.0125406,0.302029,1.02581
241,1468,3.31324,-0.0102346,0.301625,1.02482
249,1460,3.31251,-0.0108791,0.301626,1.02443
257,1452,3.31279,-0.0113644,0.301625,1.02414
265,1444,3.31275,-0.0126017,0.301632,1.02344
273,1436,3.31319,-0.0102628,0.301227,1.02244
281,1428,3.31313,-0.0106846,0.300828,1.02241
289,1420,3.31227,-0.0113418,0.301226,1.02181
297,1412,3.31252,-0.0120619,0.30163,1.02143
305,1404,3.31204,-0.0126615,0.301637,1.02085
313,1396,3.31344,-0.0100817,0.300423,1.0204
321,1388,3.31243,-0.0108153,0.300825,1.01977
329,1380,3.31201,-0.0120154,0.301246,1.01891
337,1372,3.31246,-0.012517,0.30146,1.01861
345,1364,3.31352,-0.0102601,0.300429,1.01773
353,1356,3.31345,-0.0107701,0.300445,1.01749
361,1348,3.31261,-0.0112492,0.300853,1.01701
369,1340,3.31166,-0.0120508,0.301256,1.01634
377,1332,3.31168,-0.0125334,0.301273,1.01609
385,1324,3.31276,-0.0101187,0.300469,1.01533
393,1316,3.31279,-0.0108815,0.300869,1.01467
401,1308,3.31262,-0.0113425,0.300882,1.01444
409,1300,3.31188,-0.012036,0.3013,1.01386
417,1292,3.31159,-0.0125642,0.301294,1.01355
425,1284,3.31263,-0.0100376,0.300501,1.01286
433,1276,3.31234,-0.0107749,0.300491,1.0124
441,1268,3.31138,-0.0115011,0.300898,1.01177
449,1260,3.31144,-0.0120463,0.300907,1.01148
457,1252,3.31067,-0.0127796,0.301287,1.01086
465,1244,3.31251,-0.0103272,0.300088,1.01027
473,1236,3.31229,-0.0108806,0.300519,1.00981
481,1228,3.31201,-0.0115482,0.300508,1.00938
489,1220,3.31182,-0.0121487,0.300505,1.00903
497,1212,3.31306,-0.00961663,0.2997,1.00834
505,1204,3.31283,-0.0103449,0.299696,1.0079
513,1196,3.31193,-0.0111016,0.300106,1.00725
521,1188,3.31171,-0.0121428,0.300542,1.00678
529,1180,3.31108,-0.0122358,0.300534,1.00643
537,1172,3.31288,-0.0097649,0.299306,1.00587
545,1164,3.31182,-0.0108921,0.300169,1.00489
553,1156,3.31178,-0.0115446,0.30017,1.00453
561,1148,3.31079,-0.0120996,0.300598,1.00404
569,1140,3.31105,-0.0126661,0.300603,1.00374
577,1132,3.31154,-0.0109424,0.300221,1.00236
585,1124,3.31134,-0.0115446,0.300763,1.00203
593,1116,3.31051,-0.012315,0.300651,1.0014
601,1108,3.31049,-0.0129464,0.300647,1.00104
609,1100,3.3113,-0.0105345,0.299838,1.00021
617,1092,3.31149,-0.0116908,0.299835,0.999548
625,1084,3.3101,-0.0124516,0.300686,0.99873
633,1076,3.31038,-0.0129365,0.300257,0.998641
641,1068,3.31115,-0.010428,0.299447,0.997875
649,1060,3.31057,-0.011645,0.299874,0.996993
657,1052,3.30996,-0.0123783,0.299877,0.996573
665,1044,3.31131,-0.0103908,0.299063,0.995515
673,1036,3.31013,-0.0111501,0.299931,0.994722
681,1028,3.30947,-0.0123781,0.300359,0.993839
689,1020,3.30967,-0.0130657,0.29992,0.993603
697,1012,3.31076,-0.0106117,0.299114,0.992809
705,1004,3.31028,-0.0118692,0.29954,0.991909
713,996,3.30925,-0.0126301,0.299971,0.991289
721,988,3.31079,-0.0106221,0.298945,0.990413
729,980,3.30986,-0.0112594,0.299165,0.989861
737,972,3.30843,-0.012684,0.300028,0.988654
745,964,3.31088,-0.0100075,0.298428,0.988361
753,956,3.31008,-0.0113297,0.298775,0.987392
761,948,3.30926,-0.012086,0.29921,0.986763
769,940,3.31024,-0.0100946,0.298405,0.985701
777,932,3.30923,-0.0113956,0.298835,0.984981
785,924,3.30916,-0.0120539,0.298827,0.98437
793,916,3.31069,-0.010087,0.298023,0.983267
801,908,3.3091,-0.0113833,0.298902,0.982185
809,900,3.30784,-0.0127014,0.299888,0.981232
817,892,3.30996,-0.0105688,0.298094,0.980428
825,884,3.3094,-0.0113964,0.298533,0.980032
833,876,3.30784,-0.0127037,0.298977,0.978853
841,868,3.30873,-0.010844,0.298163,0.977664
849,860,3.30846,-0.0122221,0.29862,0.976759
857,852,3.30787,-0.0128381,0.298615,0.976389
865,844,3.30783,-0.011175,0.298243,0.974884
873,836,3.30786,-0.0122532,0.298249,0.972842
881,828,3.30661,-0.0136964,0.299216,0.973117
889,820,3.30722,-0.0117348,0.298322,0.971715
897,812,3.30748,-0.0127852,0.298329,0.971427
905,804,3.30811,-0.0110494,0.297968,0.969934
913,796,3.30702,-0.0123892,0.297963,0.969199
921,788,3.30657,-0.0136602,0.298412,0.968333
929,780,3.30695,-0.0117782,0.298049,0.966904
937,772,3.30588,-0.0131409,0.298495,0.965958
945,764,3.30758,-0.0113,0.297689,0.964733
953,756,3.30573,-0.0125786,0.298147,0.963868
961,748,3.30558,-0.0138832,0.298151,0.963159
969,740,3.306,-0.0119311,0.297796,0.9618
977,732,3.30532,-0.0138266,0.298115,0.960616
985,724,3.30669,-0.0111505,0.296988,0.959983
993,716,3.30456,-0.0133874,0.298362,0.9582
1001,708,3.30574,-0.0119235,0.297556,0.956748
1009,700,3.30466,-0.013323,0.298003,0.955785
1017,692,3.3063,-0.0113734,0.296733,0.954766
1025,684,3.30453,-0.0128095,0.297661,0.953616
1033,676,3.30321,-0.0143022,0.298122,0.95262
1041,668,3.30462,-0.0121334,0.296829,0.951666
1049,660,3.30353,-0.0142544,0.297302,0.950373
1057,652,3.30474,-0.012903,0.296964,0.948666
1065,644,3.30289,-0.0144428,0.297426,0.947628
1073,636,3.3043,-0.0124321,0.296609,0.946438
1081,628,3.30242,-0.0143258,0.297564,0.945071
1089,620,3.30358,-0.0129953,0.296752,0.943513
1097,612,3.30263,-0.014671,0.297225,0.942689
1105,604,3.30235,-0.0132515,0.296887,0.940715
1113,596,3.30301,-0.0119129,0.296561,0.938969
1121,588,3.30266,-0.0132742,0.296555,0.938271
1129,580,3.30265,-0.0119139,0.296447,0.936511
1137,572,3.30146,-0.0138972,0.296707,0.935286
1145,564,3.302175,-0.0127584,0.296383,0.933416
1153,556,3.30067,-0.0147274,0.296864,0.932194
1161,548,3.30125,-0.0133536,0.296055,0.930639
1169,540,3.30196,-0.0119561,0.295736,0.928886
1177,532,3.30093,-0.0143181,0.296442,0.927469
1185,524,3.30101,-0.0127783,0.295891,0.925769
1193,516,3.29868,-0.0149158,0.29688,0.924292
1201,508,3.29972,-0.0136748,0.29607,0.922625
1209,500,3.30014,-0.0121285,0.295256,0.921116
1217,492,3.29795,-0.0152625,0.296747,0.918931
1225,484,3.29966,-0.013885,0.295435,0.917525
1233,476,3.29964,-0.0132708,0.295113,0.915291
1241,468,3.30025,-0.00988314,0.293792,0.913635
1249,460,3.29842,-0.0183375,0.294295,0.911751
1257,452,3.29966,-0.0137674,0.292486,0.909654
1265,444,3.29937,-0.0181527,0.291662,0.90765
1273,436,3.29857,-0.0175484,0.29184,0.905247
1281,428,3.29746,-0.0166492,0.291337,0.90341
1289,420,3.29804,-0.0121574,0.290013,0.901033
1297,412,3.2982,-0.019046,0.289194,0.899083
1305,404,3.29857,-0.0145806,0.287876,0.896692
1313,396,3.29866,-0.0108171,0.28707,0.893785
1321,388,3.29635,-0.0214847,0.287553,0.892095
1329,380,3.29655,-0.0169758,0.286243,0.889719
1337,372,3.29734,-0.0123346,0.284927,0.887413
1345,364,3.2972,-0.0199803,0.284614,0.884985
1353,356,3.29769,-0.0154323,0.283301,0.882612
1361,348,3.29797,-0.0107983,0.281977,0.880253
1369,340,3.29799,-0.0165868,0.281159,0.877678
1377,332,3.29783,-0.0127219,0.280345,0.874785
1385,324,3.2985,-0.0158104,0.278541,0.872666
1393,316,3.29931,-0.0119709,0.277216,0.86991
1401,308,3.29906,-0.017836,0.276409,0.867382
1409,300,3.29724,-0.0171048,0.276397,0.865225
1417,292,3.29722,-0.0152506,0.275572,0.862556
1425,284,3.29627,-0.0210916,0.274751,0.860021
1433,276,3.29902,-0.0117275,0.271639,0.856719
1441,268,3.29617,-0.0173416,0.273087,0.854696
1449,260,3.29592,-0.0193727,0.271768,0.851657
1457,252,3.29743,-0.0134988,0.269602,0.848976
1465,244,3.29641,-0.0215505,0.269638,0.846324
1473,236,3.29592,-0.0175367,0.26831,0.843569
1481,228,3.29567,-0.0176069,0.267969,0.841066
1489,220,3.29606,-0.0195767,0.266165,0.83827
1497,212,3.29653,-0.0176234,0.265347,0.83567
1505,204,3.29573,-0.0143852,0.264511,0.832378
1513,196,3.29456,-0.0145356,0.264661,0.829635
1521,188,3.29615,-0.0143844,0.261891,0.826964
1529,180,3.29502,-0.022861,0.262026,0.824199
1537,172,3.29435,-0.02085,0.26123,0.821604
1545,164,3.29727,-0.0188381,0.258079,0.818526
1553,156,3.29783,-0.0127575,0.256273,0.815573
1561,148,3.29701,-0.0127481,0.255915,0.813114
1569,140,3.29753,-0.0168376,0.254599,0.810439
1577,132,3.29676,-0.013648,0.253768,0.807091
1585,124,3.29665,-0.0115143,0.252929,0.804509
1593,116,3.29731,-0.015776,0.251616,0.801777
1601,108,3.29665,-0.0135922,0.250793,0.799199
1609,100,3.29714,-0.0178196,0.249453,0.796487
1617,92,3.29696,-0.0136351,0.248136,0.793739
1625,84,3.29607,-0.0200855,0.247782,0.790965
1633,76,3.2962,-0.0159534,0.246462,0.788161
1641,68,3.29595,-0.0124286,0.245621,0.784921
1649,60,3.29635,-0.020355,0.244889,0.782975
1657,52,3.29542,-0.016786,0.243943,0.779738
1665,44,3.29655,-0.016955,0.241186,0.776815
1673,36,3.29542,-0.0148986,0.240815,0.773999
1681,28,3.29547,-0.019307,0.239593,0.771221
1689,20,3.29563,-0.014929,0.238172,0.768495
1697,12,3.29555,-0.0128103,0.237326,0.76589
1705,4,3.29681,-0.0147562,0.23562,0.763291
1706,3,3.2957,-0.0158571,0.235389,0.762628