File: hust_correlation_analysis/matrices/HUST_5-2_cycle_feature_matrix.csv
cycle_number,rul,voltage,current,capacity,charge_capacity
1,1928,3.31724,0.0332231,0.273621,1.03102
10,1919,3.30531,-0.0144265,0.289623,1.00565
19,1910,3.30987,-0.0121345,0.285957,1.01407
28,1901,3.3113,-0.0113274,0.284405,1.01799
37,1892,3.31455,-0.00944302,0.281971,1.02033
46,1883,3.31437,-0.0112188,0.282091,1.02197
55,1874,3.31516,-0.0114252,0.281692,1.02209
64,1865,3.31506,-0.0118781,0.281059,1.02208
73,1856,3.31712,-0.00938896,0.279576,1.0217
82,1847,3.31705,-0.0111695,0.279572,1.02075
91,1838,3.31593,-0.0118786,0.279974,1.02018
100,1829,3.31746,-0.00935438,0.278652,1.0196
109,1820,3.3171,-0.0106117,0.278649,1.01891
118,1811,3.31671,-0.0112728,0.279046,1.01836
127,1802,3.31787,-0.00936116,0.27782,1.01745
136,1793,3.31747,-0.0100572,0.27812,1.01687
145,1784,3.31632,-0.0113669,0.278917,1.01575
154,1775,3.31747,-0.00946786,0.277594,1.01483
163,1766,3.31722,-0.0100904,0.277593,1.01449
172,1757,3.31633,-0.0114097,0.278388,1.01335
181,1748,3.31634,-0.0119298,0.278387,1.01308
190,1739,3.31783,-0.00950155,0.277064,1.01245
199,1730,3.31739,-0.0100931,0.277463,1.01191
208,1721,3.31655,-0.0107338,0.277862,1.01134
217,1712,3.31614,-0.0114362,0.278264,1.01076
226,1703,3.31705,-0.00952742,0.277528,1.00963
235,1694,3.31703,-0.0101894,0.277337,1.00927
244,1685,3.3169,-0.010268,0.27774,1.00903
253,1676,3.31605,-0.010527,0.278145,1.00867
262,1667,3.31619,-0.0115387,0.278144,1.00685
271,1658,3.3149,-0.0123386,0.278953,1.00729
280,1649,3.31645,-0.0103728,0.278025,1.00617
289,1640,3.31616,-0.0102873,0.277617,1.00642
298,1631,3.3154,-0.0117249,0.278031,1.00546
307,1622,3.31485,-0.0121517,0.278219,1.00525
316,1613,3.31634,-0.00969891,0.277094,1.00437
325,1604,3.31637,-0.0102828,0.277093,1.00406
334,1595,3.3158,-0.0116614,0.277502,1.00314
343,1586,3.31566,-0.0116069,0.277497,1.00315
352,1577,3.31687,-0.00973192,0.276659,1.00196
361,1568,3.31662,-0.0103315,0.276566,1.00165
370,1559,3.31579,-0.0109545,0.276975,1.00113
379,1550,3.31477,-0.0123552,0.277573,1.00017
388,1541,3.31707,-0.00907365,0.275634,1.00015
397,1532,3.31662,-0.00982921,0.276041,0.999551
406,1523,3.31621,-0.0109879,0.276449,0.998735
415,1514,3.31554,-0.0116534,0.276448,0.998376
424,1505,3.3146,-0.0124106,0.276857,0.997767
433,1496,3.31641,-0.00973938,0.275514,0.997214
442,1487,3.31623,-0.0110863,0.275922,0.996291
451,1478,3.31614,-0.0109844,0.276431,0.996346
460,1469,3.31519,-0.0123016,0.276333,0.995454
469,1460,3.31389,-0.0125085,0.277159,0.994909
478,1451,3.31637,-0.00981046,0.2754,0.994568
487,1442,3.31625,-0.0104647,0.275812,0.994016
496,1433,3.31538,-0.0112312,0.276226,0.993414
505,1424,3.31409,-0.0118646,0.276224,0.993072
514,1415,3.31455,-0.0124947,0.276222,0.992754
523,1406,3.31588,-0.00978108,0.27529,0.991986
532,1397,3.31475,-0.0112388,0.275702,0.99103
541,1388,3.31478,-0.011918,0.276118,0.990717
550,1379,3.31497,-0.0119344,0.276118,0.990464
559,1370,3.31585,-0.00985005,0.274765,0.989558
568,1361,3.31527,-0.0106048,0.275268,0.988776
577,1352,3.3146,-0.0113609,0.275594,0.988356
586,1343,3.31425,-0.0125617,0.276011,0.987528
595,1334,3.31502,-0.00990017,0.274656,0.986924
604,1325,3.31461,-0.0105597,0.27507,0.986361
613,1316,3.31482,-0.0111662,0.275066,0.986042
622,1307,3.31353,-0.0120427,0.275484,0.985387
631,1298,3.31321,-0.0126174,0.275734,0.985101
640,1289,3.31568,-0.009955,0.274131,0.984511
649,1280,3.31442,-0.0107207,0.274547,0.983893
658,1271,3.31447,-0.0113667,0.274545,0.98356
667,1262,3.31352,-0.0127348,0.275388,0.982436
676,1253,3.31473,-0.0101364,0.274029,0.981792
685,1244,3.31433,-0.0107543,0.27445,0.981267
694,1235,3.31385,-0.0120938,0.274693,0.980586
703,1226,3.31326,-0.0127646,0.274865,0.980013
712,1217,3.31472,-0.0101268,0.273927,0.979435
721,1208,3.3139,-0.01137,0.273925,0.978552
730,1199,3.31352,-0.0122116,0.274348,0.977899
739,1190,3.312,-0.0129474,0.274773,0.977318
748,1181,3.31463,-0.0108261,0.273404,0.976415
757,1172,3.3137,-0.0116006,0.27383,0.975817
766,1163,3.31304,-0.0123167,0.274258,0.975229
775,1154,3.31423,-0.0102659,0.273312,0.974074
784,1145,3.31371,-0.0115272,0.27331,0.973446
793,1136,3.31361,-0.0123512,0.273738,0.97282
802,1127,3.31262,-0.0130267,0.273738,0.97249
811,1118,3.31441,-0.0103649,0.272793,0.971621
820,1109,3.31351,-0.0115834,0.272792,0.971009
829,1100,3.31311,-0.0130586,0.273219,0.97005
838,1091,3.3138,-0.0103843,0.272273,0.969199
847,1082,3.31355,-0.0116676,0.272272,0.968552
856,1073,3.31256,-0.0130712,0.272699,0.967629
865,1064,3.31404,-0.0103809,0.271752,0.96677
874,1055,3.31271,-0.0116745,0.2727,0.965904
883,1046,3.31268,-0.01307,0.272612,0.964999
892,1037,3.31282,-0.0102626,0.27166,0.964163
901,1028,3.31311,-0.0118192,0.272092,0.963183
910,1019,3.31123,-0.0126926,0.27272,0.962528
919,1010,3.3133,-0.0104773,0.271144,0.961652
928,1001,3.31296,-0.0113213,0.271578,0.961023
937,992,3.31175,-0.0125699,0.272014,0.960179
946,983,3.31344,-0.0106073,0.27106,0.95893
955,974,3.311,-0.0120507,0.271936,0.957765
964,965,3.31156,-0.0132887,0.271494,0.957387
973,956,3.31243,-0.0105763,0.270538,0.956501
982,947,3.31093,-0.0121221,0.27142,0.95555
991,938,3.31115,-0.013486,0.271418,0.95464
1000,929,3.31192,-0.0113427,0.270464,0.953478
1009,920,3.31028,-0.0128923,0.271347,0.952269
1018,911,3.31218,-0.0107879,0.27039,0.951059
1027,902,3.31053,-0.0121993,0.270831,0.948702
1036,893,3.3095,-0.0136699,0.271273,0.94922
1045,884,3.31089,-0.0115587,0.270317,0.948013
1054,875,3.30996,-0.013039,0.270761,0.947078
1063,866,3.31065,-0.0108473,0.269802,0.94589
1072,857,3.31009,-0.0123069,0.269798,0.945196
1081,848,3.30897,-0.0137445,0.270697,0.944073
1090,839,3.31009,-0.0116485,0.269736,0.94283
1099,830,3.30982,-0.0131357,0.269737,0.942132
1108,821,3.30989,-0.0109486,0.269227,0.940701
1117,812,3.30883,-0.0124639,0.269678,0.939754
1126,803,3.31014,-0.0103887,0.268948,0.9385
1135,794,3.3092,-0.0125394,0.269167,0.937264
1144,785,3.30774,-0.0141188,0.270077,0.936062
1153,776,3.3092,-0.0119093,0.269112,0.934858
1162,767,3.30776,-0.0141288,0.269568,0.933598
1171,758,3.30915,-0.0119887,0.2686,0.931015
1180,749,3.30705,-0.0136552,0.270057,0.931106
1189,740,3.30853,-0.0113852,0.268553,0.929912
1198,731,3.30716,-0.0136139,0.269009,0.92864
1207,722,3.30844,-0.0113831,0.268043,0.927431
1216,713,3.30698,-0.0135888,0.268503,0.92616
1225,704,3.30785,-0.0122056,0.267995,0.924315
1234,695,3.30602,-0.0137631,0.268464,0.923372
1243,686,3.30705,-0.0122724,0.267493,0.921791
1252,677,3.30487,-0.0145796,0.268429,0.920275
1261,668,3.30615,-0.012276,0.267456,0.919058
1270,659,3.3052,-0.0146335,0.267922,0.917741
1279,650,3.30636,-0.0130772,0.267178,0.916182
1288,641,3.30653,-0.0115518,0.266443,0.914362
1297,632,3.3048,-0.0131576,0.266991,0.913405
1306,623,3.30571,-0.0118011,0.266414,0.911504
1315,614,3.30403,-0.0141753,0.266891,0.910203
1324,605,3.30436,-0.0128029,0.266395,0.908308
1333,596,3.30555,-0.0112368,0.2652,0.906701
1342,587,3.30386,-0.0202764,0.265404,0.905037
1351,578,3.30409,-0.0187202,0.264904,0.903226
1360,569,3.30332,-0.0172368,0.264902,0.901446
1369,560,3.30265,-0.0177978,0.264887,0.899671
1378,551,3.30485,-0.0168597,0.261961,0.897444
1387,542,3.30169,-0.0213824,0.263478,0.895975
1396,533,3.30363,-0.0178381,0.261746,0.89426
1405,524,3.30338,-0.0129438,0.260455,0.891912
1414,515,3.30456,-0.0162896,0.25898,0.889538
1423,506,3.30193,-0.0208169,0.259938,0.888328
1432,497,3.30358,-0.0118015,0.257499,0.885791
1441,488,3.30307,-0.0170659,0.2565,0.883577
1450,479,3.30519,-0.012126,0.254548,0.881458
1459,470,3.30158,-0.0154988,0.255976,0.879301
1468,461,3.30289,-0.0188072,0.254017,0.877201
1477,452,3.30318,-0.0159407,0.253012,0.874923
1486,443,3.30272,-0.0172676,0.252964,0.87284
1495,434,3.30407,-0.0186249,0.251003,0.87036
1504,425,3.30444,-0.0113495,0.248571,0.868204
1513,416,3.30185,-0.0147533,0.249512,0.866296
1522,407,3.30325,-0.0120265,0.2485,0.863942
1531,398,3.30284,-0.0160022,0.247013,0.861339
1540,389,3.30248,-0.0174548,0.246949,0.859466
1549,380,3.30399,-0.0103666,0.244985,0.8567
1558,371,3.30159,-0.0222841,0.245793,0.854837
1567,362,3.30134,-0.0157833,0.243961,0.852063
1576,353,3.30142,-0.0173684,0.243888,0.8499
1585,344,3.30206,-0.0121875,0.242389,0.847542
1594,335,3.30231,-0.0179864,0.241366,0.845214
1603,326,3.30247,-0.0143052,0.239863,0.842241
1612,317,3.30208,-0.0113929,0.239306,0.839681
1621,308,3.3023,-0.0105736,0.238273,0.83774
1630,299,3.30154,-0.0173399,0.237716,0.834819
1639,290,3.30239,-0.0141391,0.236204,0.832845
1648,281,3.30036,-0.0229311,0.236199,0.830434
1657,272,3.30123,-0.0176839,0.234689,0.828049
1666,263,3.30132,-0.0170257,0.234124,0.825816
1675,254,3.30177,-0.0126155,0.232607,0.823087
1684,245,3.30081,-0.0195022,0.232033,0.820179
1693,236,3.30092,-0.0172411,0.230989,0.817585
1702,227,3.30127,-0.0216794,0.229466,0.814908
1711,218,3.30054,-0.0196216,0.228886,0.812227
1720,209,3.30144,-0.0164269,0.22736,0.809973
1729,200,3.30165,-0.0208693,0.225837,0.807325
1738,191,3.30118,-0.0202038,0.225245,0.80509
1747,182,3.30126,-0.0179373,0.224182,0.802463
1756,173,3.30072,-0.0157923,0.223585,0.799548
1765,164,3.30099,-0.0195577,0.222054,0.797183
1774,155,3.2989,-0.021748,0.222516,0.794918
1783,146,3.29976,-0.0148853,0.220687,0.792056
1792,137,3.30008,-0.0141753,0.219911,0.78982
1801,128,3.29899,-0.0236446,0.219307,0.7873
1810,119,3.2998,-0.0180403,0.217762,0.784929
1819,110,3.29985,-0.0226383,0.216218,0.782286
1828,101,3.30056,-0.0204889,0.215139,0.779607
1837,92,3.3007,-0.0171537,0.214054,0.777356
1846,83,3.29968,-0.0149316,0.213432,0.774428
1855,74,3.30155,-0.0196478,0.211436,0.77202
1864,65,3.30075,-0.0174533,0.210784,0.76909
1873,56,3.3008,-0.0174562,0.210149,0.766575
1882,47,3.30147,-0.0223686,0.20859,0.763878
1891,38,3.30157,-0.0174476,0.207027,0.761189
1900,29,3.30172,-0.01661,0.206382,0.758973
1909,20,3.3017,-0.0168272,0.205735,0.756381
1918,11,3.30152,-0.011875,0.204623,0.753413
1926,3,3.29969,-0.0232169,0.204617,0.75174