File: hust_correlation_analysis/matrices/HUST_1-3_cycle_feature_matrix.csv
cycle_number,rul,voltage,current,capacity,charge_capacity
1,1860,3.31099,0.0334083,0.305631,1.04906
10,1851,3.3026,-0.0140757,0.321734,1.02001
19,1842,3.30715,-0.0113967,0.317665,1.02835
28,1833,3.3097,-0.0112046,0.315091,1.03209
37,1824,3.31008,-0.0122959,0.314182,1.03422
46,1815,3.31108,-0.011149,0.312962,1.03546
55,1806,3.31172,-0.0117086,0.312155,1.03546
64,1797,3.3139,-0.00946599,0.310599,1.03504
73,1788,3.31357,-0.010628,0.310604,1.03432
82,1779,3.31362,-0.0111153,0.310196,1.03416
91,1770,3.31504,-0.00940574,0.309053,1.03325
100,1761,3.31423,-0.0100403,0.309452,1.03269
109,1752,3.31409,-0.0111937,0.309446,1.03193
118,1743,3.31379,-0.0117097,0.309453,1.03162
127,1734,3.31472,-0.0100385,0.309094,1.03031
136,1725,3.31443,-0.0111696,0.309099,1.02961
145,1716,3.31373,-0.0117205,0.309503,1.02908
154,1707,3.31473,-0.00998038,0.308754,1.02802
163,1698,3.31436,-0.0106836,0.309174,1.02746
172,1689,3.31376,-0.0117801,0.309561,1.02654
181,1680,3.31465,-0.00956247,0.308815,1.02577
190,1671,3.31449,-0.0100336,0.308812,1.02546
199,1662,3.31341,-0.0112672,0.310333,1.02435
208,1653,3.31308,-0.0118267,0.309618,1.024
217,1644,3.31448,-0.0095129,0.308865,1.02323
226,1635,3.31333,-0.0103199,0.309664,1.02235
235,1626,3.31308,-0.010817,0.309664,1.02204
244,1617,3.31249,-0.0119578,0.31007,1.02113
253,1608,3.31356,-0.0102708,0.309513,1.02003
262,1599,3.31307,-0.0109159,0.309732,1.01945
271,1590,3.31303,-0.0113364,0.309327,1.01935
280,1581,3.31378,-0.00969897,0.308989,1.01801
289,1572,3.31315,-0.0103393,0.309392,1.01742
298,1563,3.31247,-0.0109617,0.309808,1.0169
307,1554,3.31248,-0.0120127,0.309805,1.01623
316,1545,3.31346,-0.00964317,0.309059,1.0155
325,1536,3.31301,-0.0103245,0.309063,1.0151
334,1527,3.31234,-0.0109658,0.309884,1.01434
343,1518,3.31193,-0.012087,0.309889,1.01366
352,1509,3.31258,-0.0098539,0.309563,1.01269
361,1500,3.31241,-0.0104319,0.309558,1.01233
370,1491,3.31247,-0.0109048,0.309569,1.01206
379,1482,3.31159,-0.0115459,0.30997,1.01145
388,1473,3.31247,-0.00988038,0.309663,1.01018
397,1464,3.3123,-0.0104183,0.309664,1.00984
406,1455,3.31155,-0.0110347,0.310063,1.00924
415,1446,3.31094,-0.0116602,0.310503,1.00875
424,1437,3.31062,-0.0122541,0.310481,1.00831
433,1428,3.31192,-0.00977883,0.309736,1.00763
442,1419,3.31126,-0.0105845,0.310154,1.00695
451,1410,3.31064,-0.0112145,0.310573,1.00639
460,1401,3.31054,-0.0116504,0.310575,1.00613
469,1392,3.31006,-0.012289,0.31057,1.00571
478,1383,3.3112,-0.00998016,0.30983,1.00495
487,1374,3.31107,-0.0111558,0.310264,1.00408
496,1365,3.31027,-0.0117773,0.310668,1.00349
505,1356,3.30985,-0.0124169,0.310872,1.00314
514,1347,3.31121,-0.00997509,0.309929,1.00239
523,1338,3.31053,-0.0106219,0.31043,1.00181
532,1329,3.3103,-0.0111732,0.31037,1.00154
541,1320,3.30974,-0.011816,0.310874,1.00096
550,1311,3.31059,-0.0100864,0.310605,0.999653
559,1302,3.31018,-0.0107237,0.310486,0.999274
568,1293,3.31014,-0.0112144,0.310485,0.998979
577,1284,3.30899,-0.011859,0.310915,0.998417
586,1275,3.30869,-0.0125746,0.311342,0.997808
595,1266,3.31015,-0.0101107,0.310171,0.997263
604,1257,3.30992,-0.0107143,0.310169,0.996885
613,1248,3.30929,-0.0113839,0.310599,0.996317
622,1239,3.30908,-0.0119896,0.311034,0.995787
631,1230,3.31006,-0.0101628,0.310283,0.994648
640,1221,3.3097,-0.0107315,0.310283,0.9943
649,1212,3.30884,-0.0114431,0.310721,0.993717
658,1203,3.30841,-0.0126336,0.311156,0.992839
667,1194,3.30937,-0.0102731,0.310409,0.992024
676,1185,3.30944,-0.0108098,0.310406,0.991696
685,1176,3.3084,-0.0115055,0.310844,0.991117
694,1167,3.30825,-0.0120841,0.310843,0.990739
703,1158,3.30935,-0.010242,0.310103,0.989643
712,1149,3.30923,-0.0102292,0.310094,0.989626
721,1140,3.30856,-0.0115117,0.310532,0.988695
730,1131,3.30779,-0.0122156,0.31097,0.988112
739,1122,3.30741,-0.0127809,0.310955,0.98773
748,1113,3.3087,-0.010975,0.310355,0.986638
757,1104,3.30823,-0.0114851,0.31022,0.986299
766,1095,3.30772,-0.0121916,0.310662,0.984357
775,1086,3.30874,-0.0102957,0.309922,0.984402
784,1077,3.30778,-0.0117023,0.310798,0.983425
793,1068,3.30724,-0.0122527,0.310803,0.983095
802,1059,3.30867,-0.0104363,0.310064,0.981951
811,1050,3.30757,-0.0110653,0.3105,0.981394
820,1041,3.30767,-0.0122664,0.310501,0.980682
829,1032,3.30628,-0.0129236,0.310945,0.980124
838,1023,3.30761,-0.0105606,0.310205,0.97928
847,1014,3.30699,-0.0117242,0.310645,0.978424
856,1005,3.30608,-0.012489,0.311108,0.977831
865,996,3.30729,-0.010584,0.31035,0.976666
874,987,3.30687,-0.0117715,0.310357,0.975973
883,978,3.30608,-0.0124856,0.3108,0.975385
892,969,3.3073,-0.0105983,0.31007,0.974258
901,960,3.30634,-0.011888,0.311262,0.973331
910,951,3.3058,-0.0124904,0.31051,0.972951
919,942,3.30716,-0.0105786,0.309762,0.971809
928,933,3.30629,-0.0119445,0.310221,0.970856
937,924,3.30526,-0.0125864,0.310671,0.970315
946,915,3.3064,-0.0107142,0.309943,0.969191
955,906,3.30547,-0.0120076,0.310392,0.96824
964,897,3.3047,-0.0127312,0.310841,0.967621
973,888,3.30565,-0.0114007,0.310114,0.96618
982,879,3.30505,-0.0120372,0.310104,0.965782
991,870,3.30388,-0.0134775,0.311033,0.964632
1000,861,3.30494,-0.0114938,0.310282,0.963492
1009,852,3.30408,-0.0128003,0.310728,0.962527
1018,843,3.30512,-0.0109341,0.310002,0.961368
1027,834,3.30419,-0.0121932,0.310463,0.960466
1036,825,3.30346,-0.0136103,0.310926,0.959485
1045,816,3.30439,-0.0117073,0.310313,0.958314
1054,807,3.30354,-0.012974,0.31065,0.957401
1063,798,3.30443,-0.010968,0.309916,0.956286
1072,789,3.30392,-0.0122538,0.309913,0.955548
1081,780,3.30474,-0.0102941,0.309176,0.954381
1090,771,3.30332,-0.0124131,0.310116,0.952837
1099,762,3.30239,-0.0137841,0.310588,0.951893
1108,753,3.30338,-0.0117449,0.309851,0.950786
1117,744,3.30211,-0.0132107,0.310321,0.950012
1126,735,3.30257,-0.0119072,0.310067,0.948073
1135,726,3.30162,-0.0132999,0.310544,0.947113
1144,717,3.30276,-0.011822,0.30981,0.945671
1153,708,3.30148,-0.013167,0.310285,0.944733
1162,699,3.30209,-0.0120233,0.310025,0.942903
1171,690,3.30135,-0.0132595,0.31079,0.942191
1180,681,3.30196,-0.0120924,0.309769,0.940387
1189,672,3.30062,-0.0134917,0.310251,0.939435
1198,663,3.30164,-0.0121537,0.309523,0.937889
1207,654,3.30047,-0.0140829,0.310002,0.936633
1216,645,3.30091,-0.0129003,0.30975,0.934813
1225,636,3.29944,-0.0142939,0.31022,0.933802
1234,627,3.30003,-0.0136742,0.309996,0.931729
1243,618,3.30068,-0.0122727,0.309243,0.930124
1252,609,3.29887,-0.0145236,0.310223,0.928533
1261,600,3.29953,-0.0183015,0.309016,0.926996
1270,591,3.30061,-0.0133769,0.307293,0.925192
1279,582,3.29819,-0.0163586,0.308772,0.923053
1288,573,3.29939,-0.0113592,0.307057,0.921336
1297,564,3.29959,-0.0177869,0.30682,0.919214
1306,555,3.29816,-0.018071,0.306944,0.917792
1315,546,3.29887,-0.013841,0.305599,0.915476
1324,537,3.29958,-0.0124558,0.304868,0.913901
1333,528,3.29988,-0.010074,0.304135,0.911618
1342,519,3.29808,-0.0164632,0.304138,0.909544
1351,510,3.29863,-0.0121771,0.302918,0.907226
1360,501,3.2993,-0.0107714,0.302234,0.905644
1369,492,3.29902,-0.0144298,0.301459,0.902758
1378,483,3.29951,-0.0130471,0.30071,0.901148
1387,474,3.29747,-0.0159852,0.301696,0.899212
1396,465,3.2977,-0.0189067,0.300471,0.896896
1405,456,3.29782,-0.0164356,0.299743,0.894898
1414,447,3.29833,-0.0120715,0.298515,0.892297
1423,438,3.29844,-0.0102397,0.297943,0.888277
1432,429,3.29841,-0.0150659,0.297069,0.887496
1441,420,3.29664,-0.0149629,0.29705,0.884986
1450,411,3.29681,-0.0124727,0.296327,0.882995
1459,402,3.29643,-0.019968,0.296096,0.880244
1468,393,3.29672,-0.0155362,0.294865,0.877884
1477,384,3.29647,-0.0137898,0.294635,0.875055
1486,375,3.29673,-0.0130937,0.293911,0.873101
1495,366,3.29628,-0.0169632,0.293183,0.870169
1504,357,3.29685,-0.0142769,0.291954,0.868159
1513,348,3.29694,-0.010616,0.291228,0.865214
1522,339,3.29702,-0.0143333,0.290775,0.862544
1531,330,3.29704,-0.0123794,0.289274,0.859966
1540,321,3.29713,-0.00982848,0.288547,0.857683
1549,312,3.2963,-0.0156972,0.288324,0.854869
1558,303,3.29473,-0.0137051,0.287819,0.85227
1567,294,3.29469,-0.0130008,0.287592,0.850136
1576,285,3.29429,-0.0207304,0.287367,0.847662
1585,276,3.2946,-0.0169356,0.286134,0.844897
1594,267,3.29491,-0.0123241,0.284905,0.842551
1603,258,3.29435,-0.0193951,0.284676,0.840406
1612,249,3.2948,-0.0123531,0.282947,0.836899
1621,240,3.29431,-0.0195615,0.282722,0.834755
1630,231,3.29464,-0.0176439,0.281997,0.832132
1639,222,3.29467,-0.0149376,0.281936,0.829898
1648,213,3.29484,-0.0129221,0.280546,0.827312
1657,204,3.29492,-0.0168708,0.279316,0.824601
1666,195,3.29518,-0.012162,0.27812,0.822247
1675,186,3.29494,-0.0182293,0.277375,0.819639
1684,177,3.29241,-0.0182728,0.277865,0.816911
1693,168,3.29232,-0.0176477,0.277769,0.814739
1702,159,3.29242,-0.0216597,0.276418,0.812053
1711,150,3.29258,-0.0196678,0.275692,0.80946
1720,141,3.29295,-0.0148489,0.27446,0.807082
1729,132,3.29309,-0.0127694,0.273739,0.804762
1738,123,3.29256,-0.0202756,0.273525,0.802378
1747,114,3.29338,-0.0140567,0.271784,0.799531
1756,105,3.29362,-0.0112636,0.271061,0.797288
1765,96,3.29331,-0.0174458,0.270339,0.794695
1774,87,3.29354,-0.0146136,0.269615,0.79245
1783,78,3.29119,-0.0147193,0.270241,0.78972
1792,69,3.29119,-0.0222426,0.269399,0.787815
1801,60,3.29081,-0.0203879,0.26919,0.78476
1810,51,3.29182,-0.0152302,0.267443,0.782833
1819,42,3.29167,-0.0207274,0.266725,0.780615
1828,33,3.29223,-0.0165481,0.265496,0.777883
1837,24,3.29247,-0.0136505,0.264779,0.775648
1846,15,3.29211,-0.0117382,0.264564,0.773037
1855,6,3.29253,-0.0172157,0.263335,0.770777
1858,3,3.29154,-0.0189454,0.263854,0.769862