File: hust_correlation_analysis/matrices/HUST_9-6_cycle_feature_matrix.csv
cycle_number,rul,voltage,current,capacity,charge_capacity
1,1744,3.32121,0.00956507,0.262615,1.02995
9,1736,3.30907,-0.01904,0.273014,1.01542
17,1728,3.31139,-0.0200512,0.271379,1.02105
25,1720,3.31431,-0.0179196,0.269499,1.02333
33,1712,3.31473,-0.0185358,0.268197,1.02392
41,1704,3.31492,-0.0184994,0.268164,1.0239
49,1696,3.31696,-0.0160519,0.266396,1.02325
57,1688,3.3167,-0.0172657,0.266395,1.02265
65,1680,3.31575,-0.0185705,0.266771,1.02171
73,1672,3.31782,-0.0167379,0.265372,1.02076
81,1664,3.31673,-0.0188342,0.266161,1.01931
89,1656,3.31752,-0.0168332,0.265143,1.0182
97,1648,3.31645,-0.0174659,0.265521,1.01761
105,1640,3.31575,-0.0188818,0.265929,1.01674
113,1632,3.31665,-0.016958,0.264913,1.01556
121,1624,3.31612,-0.0182583,0.265302,1.01468
129,1616,3.31565,-0.0195211,0.265698,1.01383
137,1608,3.31687,-0.0176276,0.265049,1.01265
145,1600,3.31656,-0.0182688,0.265058,1.01206
153,1592,3.31454,-0.0197342,0.265864,1.01092
161,1584,3.31603,-0.0178477,0.26485,1.00976
169,1576,3.31473,-0.018408,0.265246,1.00924
177,1568,3.31414,-0.0197264,0.265641,1.00835
185,1560,3.31615,-0.0173766,0.264639,1.00744
193,1552,3.31496,-0.018469,0.265028,1.00665
201,1544,3.31436,-0.019248,0.265026,1.00627
209,1536,3.31508,-0.0173192,0.264402,1.00484
217,1528,3.31547,-0.0179882,0.264406,1.00454
225,1520,3.31465,-0.0187655,0.26481,1.00391
233,1512,3.31344,-0.0199598,0.26521,1.0031
241,1504,3.31489,-0.0175274,0.26419,1.00216
249,1496,3.31401,-0.0180684,0.264576,1.0016
257,1488,3.31307,-0.0192022,0.265366,1.00049
265,1480,3.3113,-0.0215816,0.26617,1.0001
273,1472,3.31172,-0.0220398,0.266172,0.99989
281,1464,3.31337,-0.0193121,0.264725,0.999277
289,1456,3.31336,-0.019008,0.264747,0.998245
297,1448,3.3117,-0.0203965,0.265148,0.997341
305,1440,3.31299,-0.0193786,0.264523,0.996694
313,1432,3.31314,-0.0185152,0.264131,0.996416
321,1424,3.31234,-0.0196968,0.264535,0.995351
329,1416,3.31141,-0.0222525,0.265347,0.994888
337,1408,3.31336,-0.0178356,0.263507,0.994121
345,1400,3.3127,-0.0191658,0.263917,0.993075
353,1392,3.3114,-0.0199501,0.264326,0.99264
361,1384,3.31188,-0.0205235,0.264316,0.992355
369,1376,3.31332,-0.0185972,0.263308,0.991202
377,1368,3.31233,-0.0193451,0.263708,0.99058
385,1360,3.3117,-0.0199361,0.263704,0.99027
393,1352,3.3114,-0.0207186,0.264123,0.989698
401,1344,3.31265,-0.0179858,0.262681,0.989131
409,1336,3.31265,-0.019228,0.263088,0.988302
417,1328,3.31171,-0.0200398,0.263511,0.987696
425,1320,3.31003,-0.0208296,0.263933,0.987123
433,1312,3.31307,-0.0181116,0.262473,0.986241
441,1304,3.31122,-0.0195345,0.263298,0.985292
449,1296,3.31098,-0.0201371,0.263317,0.985078
457,1288,3.31264,-0.0176159,0.26228,0.984139
465,1280,3.31184,-0.0182019,0.262271,0.983843
473,1272,3.312,-0.019602,0.262695,0.982972
481,1264,3.31052,-0.0203012,0.263117,0.982413
489,1256,3.30903,-0.0211086,0.263524,0.981764
497,1248,3.31216,-0.0184298,0.26206,0.981112
505,1240,3.31039,-0.019729,0.262474,0.980235
513,1232,3.31068,-0.0204176,0.262472,0.979921
521,1224,3.30908,-0.0211326,0.262884,0.979318
529,1216,3.31081,-0.0184186,0.261851,0.978457
537,1208,3.31019,-0.019909,0.262605,0.977549
545,1200,3.3094,-0.0205035,0.262265,0.977236
553,1192,3.31126,-0.0179307,0.261226,0.976291
561,1184,3.31025,-0.0193005,0.261658,0.975481
569,1176,3.31051,-0.0200601,0.261648,0.975088
577,1168,3.3087,-0.0206969,0.262057,0.97451
585,1160,3.31104,-0.0187933,0.26103,0.973295
593,1152,3.30915,-0.0193731,0.261456,0.97279
601,1144,3.31031,-0.0201285,0.261017,0.97266
609,1136,3.30821,-0.0216018,0.261966,0.9715
617,1128,3.31006,-0.0188397,0.260831,0.970653
625,1120,3.30928,-0.020289,0.261262,0.969759
633,1112,3.30928,-0.0210156,0.261569,0.969442
641,1104,3.30888,-0.018858,0.260638,0.968024
649,1096,3.30957,-0.019764,0.260649,0.96764
657,1088,3.30834,-0.0210885,0.261078,0.966807
665,1080,3.30801,-0.0218356,0.261079,0.966489
673,1072,3.30932,-0.019676,0.260015,0.965276
681,1064,3.308,-0.0204235,0.26045,0.964728
689,1056,3.30734,-0.0211501,0.260874,0.96412
697,1048,3.30921,-0.0189442,0.25938,0.96319
705,1040,3.30914,-0.0197121,0.259381,0.962856
713,1032,3.30698,-0.0213541,0.260169,0.961786
721,1024,3.30913,-0.018487,0.258744,0.960955
729,1016,3.30767,-0.0200487,0.259625,0.959798
737,1008,3.30693,-0.0215484,0.260061,0.958893
745,1000,3.30904,-0.0184718,0.258551,0.958321
753,992,3.30792,-0.0201335,0.258996,0.95713
761,984,3.3079,-0.0209073,0.258993,0.957033
769,976,3.30619,-0.0221784,0.259434,0.956237
777,968,3.30751,-0.0200736,0.258363,0.95498
785,960,3.30675,-0.0210822,0.258788,0.954236
793,952,3.30518,-0.0225631,0.259334,0.953185
801,944,3.30708,-0.0203365,0.258172,0.952179
809,936,3.30666,-0.0211265,0.258162,0.951831
817,928,3.30531,-0.0225426,0.258604,0.950942
825,920,3.30684,-0.0203848,0.257536,0.949748
833,912,3.30644,-0.0213493,0.257987,0.949081
841,904,3.30528,-0.0227516,0.258424,0.948206
849,896,3.30626,-0.0206599,0.257347,0.946934
857,888,3.30637,-0.0221193,0.257349,0.946306
865,880,3.30503,-0.022916,0.257866,0.945665
873,872,3.30608,-0.0206634,0.256694,0.944423
881,864,3.30524,-0.0222179,0.257159,0.943596
889,856,3.3069,-0.0200584,0.25608,0.942312
897,848,3.30633,-0.0206939,0.256449,0.942005
905,840,3.30462,-0.0223367,0.256526,0.941102
913,832,3.3063,-0.0201417,0.255445,0.939856
921,824,3.30527,-0.0216229,0.255883,0.938953
929,816,3.30462,-0.0233059,0.25634,0.937999
937,808,3.30494,-0.0209958,0.255706,0.936519
945,800,3.30387,-0.0224924,0.255707,0.935901
953,792,3.30553,-0.0202203,0.254617,0.934657
961,784,3.30459,-0.0218808,0.255066,0.933702
969,776,3.30409,-0.0227505,0.255067,0.933339
977,768,3.3058,-0.0204459,0.253976,0.932117
985,760,3.30399,-0.0220551,0.254429,0.931174
993,752,3.30248,-0.0236162,0.254865,0.930211
1001,744,3.30403,-0.0213509,0.253781,0.928991
1009,736,3.30246,-0.0229503,0.254243,0.928093
1017,728,3.303676,-0.0215664,0.253608,0.926188
1025,720,3.30375,-0.0225639,0.253602,0.925772
1033,712,3.30486,-0.0208554,0.252516,0.924329
1041,704,3.30349,-0.0224772,0.252973,0.923383
1049,696,3.30189,-0.0239764,0.253426,0.922482
1057,688,3.3032,-0.0217806,0.252315,0.921137
1065,680,3.30178,-0.0242984,0.253262,0.919663
1073,672,3.30243,-0.0219791,0.252143,0.91835
1081,664,3.30092,-0.0235693,0.252608,0.917417
1089,656,3.30335,-0.0211583,0.251025,0.916432
1097,648,3.30145,-0.0238785,0.251961,0.914801
1105,640,3.30219,-0.0213872,0.250859,0.913619
1113,632,3.30184,-0.0229057,0.250852,0.913017
1121,624,3.30271,-0.0214976,0.250217,0.911094
1129,616,3.3013,-0.0231463,0.250694,0.910199
1137,608,3.30292,-0.0215545,0.249565,0.908578
1145,600,3.30145,-0.0232776,0.250032,0.907624
1153,592,3.30149,-0.021782,0.249393,0.905719
1161,584,3.30134,-0.023505,0.249406,0.905088
1169,576,3.30165,-0.0220032,0.248742,0.903131
1177,568,3.30011,-0.0244338,0.24921,0.902103
1185,560,3.30095,-0.0219929,0.248076,0.900586
1193,552,3.2997,-0.0245481,0.248564,0.899332
1201,544,3.30055,-0.0230824,0.247909,0.897352
1209,536,3.29915,-0.0247124,0.248378,0.896426
1217,528,3.3005,-0.0232039,0.247524,0.894741
1225,520,3.29778,-0.0259044,0.248221,0.893185
1233,512,3.29906,-0.0242921,0.247079,0.891542
1241,504,3.2999,-0.0225603,0.246002,0.889906
1249,496,3.29899,-0.0252198,0.246824,0.888623
1257,488,3.2994,-0.0237428,0.245771,0.886678
1265,480,3.29666,-0.0264143,0.246751,0.885094
1273,472,3.29812,-0.0247161,0.245603,0.883477
1281,464,3.29934,-0.0231473,0.244444,0.88177
1289,456,3.29643,-0.0266599,0.245432,0.879879
1297,448,3.29707,-0.0250873,0.244779,0.87792
1305,440,3.29815,-0.0234569,0.243882,0.876238
1313,432,3.29567,-0.0260937,0.244429,0.874963
1321,424,3.29675,-0.0253469,0.243449,0.872681
1329,416,3.29752,-0.0236187,0.242287,0.871031
1337,408,3.29482,-0.0273522,0.243303,0.869077
1345,400,3.29511,-0.0265998,0.242624,0.866745
1353,392,3.29598,-0.0248408,0.241861,0.865072
1361,384,3.29674,-0.0240953,0.240787,0.86276
1369,376,3.29428,-0.0280251,0.241809,0.860751
1377,368,3.29463,-0.0262111,0.24062,0.859084
1385,360,3.29529,-0.0254088,0.239951,0.856744
1393,352,3.29508,-0.0247007,0.239276,0.854362
1401,344,3.2923,-0.028599,0.24031,0.852364
1409,336,3.29377,-0.025219,0.238592,0.849214
1417,328,3.2931,-0.0243047,0.237912,0.848055
1425,320,3.2938,-0.0295959,0.236187,0.845262
1433,312,3.29439,-0.0235469,0.234459,0.843059
1441,304,3.29405,-0.0227919,0.233764,0.840676
1449,296,3.29501,-0.0253914,0.231762,0.837998
1457,288,3.29308,-0.0265852,0.231502,0.836395
1465,280,3.29259,-0.0258669,0.230799,0.834002
1473,272,3.29221,-0.0310093,0.229578,0.831027
1481,264,3.29411,-0.0251999,0.227332,0.829018
1489,256,3.29369,-0.03241,0.226101,0.826457
1497,248,3.29351,-0.02923,0.224855,0.82404
1505,240,3.29385,-0.0242765,0.22351,0.82135
1513,232,3.29365,-0.0335461,0.222367,0.818997
1521,224,3.29436,-0.0285046,0.220618,0.816399
1529,216,3.29469,-0.0233563,0.218851,0.813765
1537,208,3.294,-0.0327932,0.218093,0.811349
1545,200,3.29525,-0.0225862,0.215325,0.8087
1553,192,3.29434,-0.0328836,0.21456,0.806069
1561,184,3.29238,-0.0329966,0.214571,0.803763
1569,176,3.29236,-0.0294991,0.213294,0.801424
1577,168,3.29291,-0.0346818,0.211524,0.798801
1585,160,3.29259,-0.0322125,0.210233,0.796094
1593,152,3.29138,-0.0326134,0.209954,0.793093
1601,144,3.29177,-0.0273828,0.208173,0.790474
1609,136,3.29178,-0.0353041,0.20687,0.787812
1617,128,3.29316,-0.0275434,0.204591,0.785134
1625,120,3.29329,-0.0343576,0.202801,0.783159
1633,112,3.29254,-0.0329268,0.201979,0.779849
1641,104,3.29348,-0.0268652,0.200186,0.777472
1649,96,3.29329,-0.0331605,0.198383,0.774525
1657,88,3.29332,-0.0305713,0.197058,0.771869
1665,80,3.29254,-0.0390509,0.196207,0.768812
1673,72,3.29349,-0.0334288,0.193915,0.766563
1681,64,3.2938,-0.0389901,0.192117,0.763947
1689,56,3.29384,-0.0365151,0.190774,0.761241
1697,48,3.2931,-0.0341808,0.189916,0.758189
1705,40,3.293412,-0.0316868,0.188545,0.75549
1713,32,3.29306,-0.0409797,0.18717,0.75254
1721,24,3.29778,-0.0244901,0.182591,0.749573
1729,16,3.2973,-0.0339647,0.181199,0.746558
1737,8,3.29755,-0.0314397,0.179812,0.744054
1742,3,3.29616,-0.0301066,0.179353,0.742237