File: hust_correlation_analysis/matrices/HUST_6-1_cycle_feature_matrix.csv
cycle_number,rul,voltage,current,capacity,charge_capacity
1,1611,3.31514,-0.00679969,0.342137,1.02258
9,1603,3.30399,-0.00973012,0.347548,1.01624
17,1595,3.30599,-0.00843386,0.345913,1.01521
25,1587,3.30548,-0.00965943,0.345914,1.01452
33,1579,3.30668,-0.00790692,0.344767,1.01356
41,1571,3.30627,-0.00855529,0.344769,1.0132
49,1563,3.30595,-0.00983596,0.344864,1.01247
57,1555,3.30715,-0.008082,0.344104,1.01133
65,1547,3.30672,-0.00864866,0.344106,1.01102
73,1539,3.30644,-0.00982853,0.344106,1.01034
81,1531,3.3085,-0.00729495,0.34248,1.01002
89,1523,3.30797,-0.00800328,0.342954,1.00943
97,1515,3.30765,-0.00923429,0.343056,1.00868
105,1507,3.30737,-0.00977794,0.342949,1.00837
113,1499,3.30875,-0.00741295,0.341803,1.00778
121,1491,3.30892,-0.00862423,0.341797,1.00705
129,1483,3.30831,-0.00927579,0.342272,1.00651
137,1475,3.30749,-0.00993991,0.342745,1.00592
145,1467,3.30922,-0.00741475,0.341111,1.00556
153,1459,3.30886,-0.0080954,0.341587,1.00499
161,1451,3.30926,-0.00863493,0.341109,1.00486
169,1443,3.30866,-0.00929208,0.341208,1.00445
177,1435,3.30827,-0.0099086,0.341574,1.0039
185,1427,3.31045,-0.00736329,0.339954,1.00357
193,1419,3.3095,-0.00747891,0.340425,1.00332
201,1411,3.30964,-0.00797491,0.340427,1.00303
209,1403,3.30968,-0.00865987,0.340424,1.00263
217,1395,3.30878,-0.00935633,0.34091,1.00206
225,1387,3.30889,-0.00925124,0.340433,1.0023
233,1379,3.30827,-0.00994156,0.340911,1.00173
241,1371,3.30835,-0.00980674,0.34045,1.00202
249,1363,3.30973,-0.0075062,0.339764,1.00117
257,1355,3.30931,-0.00816342,0.339766,1.00076
265,1347,3.30893,-0.0087972,0.340239,1.00022
273,1339,3.30894,-0.00928569,0.339765,1.00011
281,1331,3.30906,-0.00935524,0.339764,1.00009
289,1323,3.31034,-0.00754007,0.339084,0.998939
297,1315,3.31066,-0.00748696,0.338615,0.999166
305,1307,3.30951,-0.00816912,0.339086,0.998573
313,1299,3.30985,-0.0087185,0.338613,0.998417
321,1291,3.30952,-0.00938989,0.339085,0.997855
329,1283,3.3093,-0.00995163,0.33908,0.997522
337,1275,3.31076,-0.0075251,0.33801,0.996899
345,1267,3.3105,-0.00808929,0.337931,0.996573
353,1259,3.31065,-0.00873886,0.337931,0.996207
361,1251,3.31044,-0.00931727,0.337927,0.995852
369,1243,3.30991,-0.00991443,0.337925,0.995486
377,1235,3.31143,-0.00755096,0.337248,0.99486
385,1227,3.3115,-0.00806965,0.336781,0.994585
393,1219,3.31154,-0.00862888,0.336301,0.994393
401,1211,3.31042,-0.00938334,0.337248,0.993609
409,1203,3.31077,-0.00994217,0.33677,0.993436
417,1195,3.31216,-0.00748276,0.335621,0.992843
425,1187,3.31142,-0.00810765,0.336094,0.992309
433,1179,3.31207,-0.00875542,0.335619,0.992094
441,1171,3.31121,-0.00938225,0.336091,0.991555
449,1163,3.31014,-0.0100044,0.336569,0.990996
457,1155,3.31234,-0.00753008,0.334945,0.990595
465,1147,3.31176,-0.00816216,0.335417,0.99005
473,1139,3.31088,-0.00886036,0.335967,0.989455
481,1131,3.31108,-0.00943171,0.335413,0.989294
489,1123,3.31286,-0.0074714,0.334264,0.988403
497,1115,3.3121,-0.00820932,0.334738,0.98779
505,1107,3.31175,-0.00890286,0.334736,0.987371
513,1099,3.31168,-0.00998701,0.335207,0.986726
521,1091,3.31252,-0.00756638,0.334065,0.985951
529,1083,3.31207,-0.00822734,0.334063,0.985549
537,1075,3.31212,-0.00944886,0.334058,0.984823
545,1067,3.31109,-0.0101092,0.33453,0.984243
553,1059,3.31298,-0.00759958,0.33338,0.98367
561,1051,3.31245,-0.00886641,0.334318,0.982736
569,1043,3.31214,-0.00953453,0.333841,0.982322
577,1035,3.31154,-0.0100752,0.333834,0.981979
585,1027,3.3126,-0.00765442,0.333152,0.981164
593,1019,3.3132,-0.00884164,0.332678,0.980628
601,1011,3.3121,-0.00946465,0.333154,0.980095
609,1003,3.31298,-0.00769481,0.332481,0.979156
617,995,3.31346,-0.00817334,0.332003,0.978781
625,987,3.31242,-0.00891577,0.332478,0.977948
633,979,3.3119,-0.0101826,0.332473,0.977416
641,971,3.31364,-0.00767109,0.331331,0.975502
649,963,3.31334,-0.00833643,0.331788,0.976462
657,955,3.31197,-0.00960599,0.332286,0.975357
665,947,3.31375,-0.00761836,0.331134,0.974442
673,939,3.31337,-0.00832228,0.331135,0.974041
681,931,3.31286,-0.00947767,0.331125,0.973326
689,923,3.31394,-0.00773066,0.331045,0.972112
697,915,3.31367,-0.00831222,0.330451,0.971748
705,907,3.31273,-0.009565,0.330931,0.970849
713,899,3.31424,-0.006095,0.329781,0.96954
721,891,3.3134,-0.0131536,0.329781,0.969401
729,883,3.3129,-0.0144141,0.329785,0.968416
737,875,3.3144,-0.00770738,0.327682,0.966792
745,867,3.31422,-0.00726204,0.327205,0.965937
753,859,3.31246,-0.0102767,0.328633,0.964947
761,851,3.31445,-0.0124936,0.32654,0.964646
769,843,3.31365,-0.0138198,0.327017,0.963442
777,835,3.31517,-0.01028,0.3254,0.962346
785,827,3.31436,-0.00739878,0.324926,0.960381
793,819,3.31402,-0.00805379,0.324933,0.960008
801,811,3.31434,-0.0125913,0.324261,0.958867
809,803,3.31424,-0.00968993,0.32332,0.957057
817,795,3.31523,-0.00779648,0.322646,0.95592
825,787,3.31479,-0.0090128,0.322644,0.955214
833,779,3.31497,-0.00857162,0.322201,0.954498
841,771,3.31456,-0.0131986,0.321967,0.952982
849,763,3.31455,-0.0128785,0.3215,0.952074
857,755,3.31517,-0.0126263,0.321294,0.951068
865,747,3.31453,-0.0105935,0.320933,0.950002
873,739,3.31572,-0.00713709,0.319214,0.94868
881,731,3.31463,-0.00746044,0.319678,0.947042
889,723,3.31419,-0.0150855,0.319214,0.946516
897,715,3.3147,-0.0132992,0.319012,0.945174
905,707,3.3148,-0.0102605,0.317605,0.943549
913,699,3.31521,-0.00683485,0.316937,0.942028
921,691,3.31471,-0.00811257,0.316934,0.941288
929,683,3.31554,-0.0116166,0.316382,0.93966
937,675,3.31506,-0.0129144,0.316382,0.938905
945,667,3.31658,-0.00772296,0.314661,0.937447
953,659,3.31524,-0.0113221,0.315135,0.936317
961,651,3.31646,-0.0061488,0.313537,0.934824
969,643,3.31572,-0.0127461,0.313065,0.933612
977,635,3.3157,-0.01181,0.313315,0.931601
985,627,3.31527,-0.00805067,0.311932,0.930402
993,619,3.31619,-0.00678288,0.311268,0.9289
1001,611,3.31529,-0.00813621,0.311723,0.927951
1009,603,3.31663,-0.00998312,0.309672,0.926306
1017,595,3.31534,-0.0113416,0.310132,0.925382
1025,587,3.31616,-0.00850437,0.30947,0.923497
1033,579,3.31517,-0.0153106,0.309464,0.922043
1041,571,3.31566,-0.0132945,0.308851,0.921
1049,563,3.31463,-0.0153642,0.309258,0.91991
1057,555,3.31588,-0.0091449,0.30721,0.917591
1065,547,3.31655,-0.00779108,0.306545,0.916126
1073,539,3.31574,-0.00815706,0.306639,0.914633
1081,531,3.31605,-0.011803,0.30587,0.912765
1089,523,3.31659,-0.00894864,0.3052,0.910873
1097,515,3.31562,-0.00751908,0.304736,0.909244
1105,507,3.31631,-0.0127771,0.304065,0.907769
1113,499,3.31427,-0.0149336,0.304979,0.906243
1121,491,3.31551,-0.0108792,0.303393,0.904036
1129,483,3.31659,-0.00621181,0.301816,0.902179
1137,475,3.31443,-0.0148806,0.302719,0.900716
1145,467,3.31539,-0.012583,0.301598,0.897124
1153,459,3.31582,-0.00968847,0.300933,0.896757
1161,451,3.3147,-0.0088886,0.300471,0.894771
1169,443,3.31499,-0.011514,0.29935,0.892394
1177,435,3.31529,-0.0103261,0.299141,0.890674
1185,427,3.31579,-0.00729175,0.298018,0.888996
1193,419,3.31422,-0.0150785,0.298468,0.886958
1201,411,3.31409,-0.0110632,0.297806,0.884375
1209,403,3.31497,-0.00974011,0.296689,0.883052
1217,395,3.31528,-0.0124631,0.296006,0.880646
1225,387,3.31328,-0.00838461,0.296482,0.878815
1233,379,3.314,-0.0128928,0.294946,0.876734
1241,371,3.3147,-0.00878041,0.294245,0.874337
1249,363,3.31483,-0.0063828,0.293588,0.872137
1257,355,3.31298,-0.0135775,0.294048,0.870517
1265,347,3.31356,-0.0111524,0.293025,0.868484
1273,339,3.31459,-0.0070346,0.291361,0.866239
1281,331,3.31395,-0.0133406,0.291614,0.864018
1289,323,3.31409,-0.0092318,0.290498,0.861584
1297,315,3.31459,-0.0127438,0.289384,0.858568
1305,307,3.31257,-0.0137738,0.289839,0.856779
1313,299,3.3125,-0.0113732,0.289268,0.854551
1321,291,3.31281,-0.0131068,0.287603,0.851549
1329,283,3.31306,-0.0106294,0.286947,0.849359
1337,275,3.31277,-0.00897383,0.286744,0.846564
1345,267,3.31259,-0.0136048,0.286084,0.84432
1353,259,3.31337,-0.0111588,0.284972,0.84226
1361,251,3.31167,-0.010469,0.284967,0.840017
1369,243,3.31117,-0.00872344,0.284767,0.837253
1377,235,3.31189,-0.0115443,0.283191,0.834976
1385,227,3.31174,-0.010976,0.283423,0.832936
1393,219,3.31207,-0.00666107,0.281892,0.830546
1401,211,3.31236,-0.0101879,0.280775,0.827997
1409,203,3.31181,-0.00953731,0.28058,0.825725
1417,195,3.31077,-0.00876989,0.280124,0.823941
1425,187,3.30979,-0.0154251,0.280383,0.821442
1433,179,3.31023,-0.0117826,0.279273,0.818661
1441,171,3.31083,-0.00924939,0.278167,0.816612
1449,163,3.31023,-0.0139676,0.277972,0.814248
1457,155,3.3115,-0.00845484,0.275952,0.811411
1465,147,3.31104,-0.00599092,0.275304,0.809155
1473,139,3.30856,-0.0132306,0.275752,0.806399
1481,131,3.30833,-0.0127179,0.275561,0.804357
1489,123,3.30901,-0.00812077,0.273989,0.802115
1497,115,3.30911,-0.014731,0.273342,0.800296
1505,107,3.30857,-0.0123393,0.273154,0.797835
1513,99,3.30855,-0.00983945,0.272521,0.795609
1521,91,3.3067,-0.0170669,0.272045,0.793221
1529,83,3.30653,-0.0146303,0.271402,0.790948
1537,75,3.30708,-0.011985,0.270299,0.788918
1545,67,3.3074,-0.0138024,0.268746,0.785908
1553,59,3.30754,-0.009411,0.267647,0.783431
1561,51,3.3069,-0.0142777,0.267005,0.781226
1569,43,3.30513,-0.0154143,0.266999,0.779356
1577,35,3.30553,-0.0128376,0.265901,0.777283
1585,27,3.3058,-0.00842774,0.264807,0.774797
1593,19,3.30607,-0.0113086,0.263265,0.77283
1601,11,3.30639,-0.00876148,0.262176,0.770486
1609,3,3.30315,-0.0174138,0.26262,0.76847