File: hust_correlation_analysis/matrices/HUST_4-7_cycle_feature_matrix.csv
cycle_number,rul,voltage,current,capacity,charge_capacity
1,2218,3.31546,-0.00458523,0.348213,1.07447
12,2207,3.3053,-0.00614847,0.353194,1.0666
23,2196,3.30529,-0.00812991,0.353189,1.06524
34,2185,3.3063,-0.00808664,0.352499,1.06427
45,2174,3.30572,-0.00955448,0.352432,1.06312
56,2163,3.30652,-0.00816115,0.351805,1.06192
67,2152,3.30631,-0.00975429,0.351825,1.06091
78,2141,3.30761,-0.0081246,0.350829,1.05994
89,2130,3.30659,-0.00926478,0.351193,1.05909
100,2119,3.30677,-0.00969298,0.350735,1.05887
111,2108,3.30796,-0.00811672,0.350124,1.05785
122,2097,3.30738,-0.00924543,0.350532,1.05687
133,2086,3.30618,-0.00980543,0.351,1.05645
144,2075,3.30799,-0.00817272,0.350017,1.05554
155,2064,3.30751,-0.00877643,0.350383,1.05505
166,2053,3.30695,-0.00931943,0.350466,1.05464
177,2042,3.30821,-0.00719618,0.349303,1.05405
188,2031,3.30835,-0.00822743,0.349301,1.05335
199,2020,3.30814,-0.00876441,0.349891,1.05295
210,2009,3.30766,-0.00881979,0.349211,1.05269
221,1998,3.30725,-0.00946969,0.34921,1.05223
232,1987,3.307,-0.0100394,0.349217,1.05185
243,1976,3.30888,-0.00775585,0.347732,1.05157
254,1965,3.30888,-0.00885729,0.347754,1.05089
265,1954,3.30824,-0.00939379,0.348158,1.05031
276,1943,3.30822,-0.00984368,0.347745,1.05021
287,1932,3.30909,-0.00776654,0.347117,1.04946
298,1921,3.30883,-0.0083533,0.347739,1.04913
309,1910,3.30869,-0.00888614,0.347131,1.04874
320,1899,3.30874,-0.00986379,0.347164,1.04815
331,1888,3.31003,-0.00764753,0.346084,1.0476
342,1877,3.31,-0.00822781,0.346107,1.0473
353,1866,3.30966,-0.00877965,0.346083,1.04681
364,1855,3.30953,-0.00785415,0.345704,1.04643
375,1844,3.30923,-0.00977149,0.346114,1.04624
386,1833,3.31049,-0.00672446,0.345083,1.04506
397,1822,3.30971,-0.00839141,0.345459,1.04493
408,1811,3.30993,-0.00886085,0.345042,1.04478
419,1800,3.30926,-0.00948333,0.345523,1.04414
430,1789,3.3114,-0.00768358,0.344233,1.04356
441,1778,3.31082,-0.00831837,0.344493,1.04295
452,1767,3.31092,-0.00868762,0.344065,1.04287
463,1756,3.31015,-0.00940989,0.344386,1.04209
474,1745,3.30973,-0.00991925,0.344407,1.04214
485,1734,3.31166,-0.0082914,0.34337,1.04101
496,1723,3.3116,-0.00729259,0.342974,1.04061
507,1712,3.31062,-0.00800572,0.343411,1.04002
518,1701,3.3123,-0.00630856,0.342366,1.03917
529,1690,3.31187,-0.00689607,0.342366,1.03877
540,1679,3.31198,-0.00732241,0.341379,1.0386
551,1668,3.31181,-0.00791641,0.342518,1.03815
562,1657,3.31138,-0.00854712,0.34191,1.0377
573,1646,3.3129,-0.0062997,0.340855,1.03718
584,1635,3.31232,-0.00743698,0.341879,1.03626
595,1624,3.31161,-0.00801439,0.341727,1.03579
606,1613,3.31333,-0.00578781,0.340247,1.03541
617,1602,3.31304,-0.00636574,0.340208,1.03489
628,1591,3.3124,-0.00752134,0.340647,1.03399
639,1580,3.31224,-0.00804245,0.340643,1.03362
650,1569,3.31254,-0.00844999,0.340223,1.03351
661,1558,3.31383,-0.0064348,0.339159,1.03281
672,1547,3.31346,-0.00698608,0.339139,1.03236
683,1536,3.31302,-0.00801527,0.339585,1.03159
694,1525,3.31407,-0.00733871,0.338926,1.03106
705,1514,3.31418,-0.00679535,0.338532,1.03034
716,1503,3.31372,-0.00739037,0.338531,1.02993
727,1492,3.31257,-0.00861318,0.339401,1.02885
738,1481,3.31449,-0.00639851,0.337908,1.02841
749,1470,3.31388,-0.00756503,0.338328,1.02745
760,1459,3.31337,-0.00812225,0.33831,1.02702
771,1448,3.3149,-0.0063802,0.337277,1.02618
782,1437,3.31402,-0.00709063,0.337677,1.02549
793,1426,3.31379,-0.00798701,0.337698,1.02492
804,1415,3.31472,-0.00648794,0.337047,1.02368
815,1404,3.31368,-0.00758109,0.337921,1.02269
826,1393,3.3137,-0.00806421,0.337476,1.02246
837,1382,3.31459,-0.00656201,0.336856,1.02128
848,1371,3.31379,-0.00753734,0.33729,1.02048
859,1360,3.31317,-0.0085922,0.33773,1.01966
870,1349,3.31498,-0.00648367,0.336221,1.01913
881,1338,3.31409,-0.00748904,0.336664,1.01828
892,1327,3.31361,-0.00825218,0.336628,1.01765
903,1316,3.31454,-0.00662422,0.335999,1.01652
914,1305,3.31409,-0.00863634,0.336413,1.01627
925,1294,3.31364,-0.00880918,0.337032,1.01489
936,1283,3.31485,-0.00664336,0.335375,1.01427
947,1272,3.31407,-0.00765147,0.335814,1.01346
958,1261,3.3137,-0.00873434,0.335807,1.01266
969,1250,3.31454,-0.00704801,0.33518,1.0116
980,1239,3.31377,-0.00830435,0.335627,1.01064
991,1228,3.31457,-0.00661595,0.335012,1.00958
1002,1217,3.31403,-0.00759909,0.335083,1.00888
1013,1206,3.31336,-0.00881069,0.335444,1.00794
1024,1195,3.31428,-0.00703642,0.334818,1.00688
1035,1184,3.31393,-0.00827416,0.335083,1.0061
1046,1173,3.31485,-0.00663433,0.334373,1.00493
1057,1162,3.31376,-0.00767271,0.334615,1.00402
1068,1151,3.3134,-0.00882147,0.334604,1.00319
1079,1140,3.31462,-0.00701757,0.334151,1.0023
1090,1129,3.31349,-0.00933815,0.334386,1.00165
1101,1118,3.31459,-0.0066529,0.333337,1.00006
1112,1107,3.31381,-0.00925826,0.333745,0.999361
1123,1096,3.31401,-0.00673837,0.333582,0.99744
1134,1085,3.31296,-0.00939811,0.335039,0.996601
1145,1074,3.3141,-0.00675324,0.333408,0.995049
1156,1063,3.31361,-0.00792891,0.333415,0.994259
1167,1052,3.3136,-0.0110066,0.333252,0.992437
1178,1041,3.3129,-0.0121852,0.33323,0.991578
1189,1030,3.31418,-0.00808194,0.331781,0.989881
1200,1019,3.31308,-0.00938495,0.332202,0.988794
1211,1008,3.31349,-0.0114557,0.331142,0.986594
1222,997,3.31275,-0.0122743,0.331108,0.985916
1233,986,3.31338,-0.00964997,0.330519,0.984212
1244,975,3.3123,-0.00863812,0.330491,0.982455
1255,964,3.31341,-0.0115847,0.329047,0.980968
1266,953,3.312,-0.0119226,0.329456,0.979256
1277,942,3.31231,-0.0108936,0.329288,0.977549
1288,931,3.31277,-0.00689602,0.328223,0.975442
1299,920,3.31148,-0.0130771,0.328206,0.973869
1310,909,3.3123,-0.0103093,0.327169,0.972325
1321,898,3.31333,-0.00612129,0.325701,0.970581
1332,887,3.31145,-0.0071493,0.326567,0.968287
1343,876,3.31156,-0.0124226,0.326402,0.966327
1354,865,3.3117,-0.011288,0.326238,0.964715
1365,854,3.31083,-0.0101069,0.325804,0.963015
1376,843,3.31088,-0.012477,0.324721,0.960534
1387,832,3.31157,-0.00890757,0.323626,0.958031
1398,821,3.31234,-0.00631207,0.322633,0.956446
1409,810,3.31047,-0.00726099,0.323477,0.954149
1420,799,3.31087,-0.0110075,0.322453,0.95223
1431,788,3.3107,-0.00897544,0.322273,0.949844
1442,777,3.31144,-0.0068609,0.321255,0.94786
1453,766,3.3093,-0.0123269,0.321671,0.945408
1464,755,3.30991,-0.0101673,0.320636,0.943407
1475,744,3.31002,-0.00815029,0.320025,0.941124
1486,733,3.30973,-0.011064,0.319416,0.938268
1497,722,3.30987,-0.00917019,0.318798,0.935878
1508,711,3.31064,-0.00547297,0.317317,0.93366
1519,700,3.31013,-0.0100026,0.317081,0.930937
1530,689,3.30854,-0.0109996,0.317602,0.9289
1541,678,3.30844,-0.00794231,0.317004,0.925992
1552,667,3.30848,-0.0133831,0.316394,0.924158
1563,656,3.3088,-0.00985392,0.315366,0.921688
1574,645,3.30903,-0.00669327,0.314324,0.918955
1585,634,3.30861,-0.0128798,0.31463,0.916486
1596,623,3.3086,-0.0108526,0.314061,0.914147
1607,612,3.30889,-0.00765435,0.312979,0.911441
1618,601,3.3089,-0.00551493,0.31238,0.909203
1629,590,3.30874,-0.0101929,0.311786,0.906622
1640,579,3.30859,-0.00710918,0.311194,0.90367
1651,568,3.30857,-0.0113161,0.310621,0.901451
1662,557,3.30711,-0.0111856,0.310156,0.898992
1673,546,3.3069,-0.00815913,0.309638,0.895962
1684,535,3.30673,-0.0144042,0.309434,0.893724
1695,524,3.30684,-0.0106789,0.308384,0.891233
1706,513,3.30659,-0.00914312,0.308268,0.888566
1717,502,3.30676,-0.00692215,0.307669,0.88633
1728,491,3.30699,-0.0101225,0.306202,0.88368
1739,480,3.30695,-0.0132515,0.305149,0.88088
1750,469,3.30719,-0.0094486,0.304106,0.87841
1761,458,3.3073,-0.0078579,0.303528,0.875844
1772,447,3.30703,-0.0121059,0.302939,0.873594
1783,436,3.30727,-0.0104845,0.302371,0.871046
1794,425,3.30743,-0.006623,0.301332,0.868615
1805,414,3.30559,-0.00828896,0.301786,0.866193
1816,403,3.30544,-0.0124981,0.301199,0.863999
1827,392,3.30561,-0.00926923,0.300182,0.861207
1838,381,3.30515,-0.0142524,0.300046,0.85845
1849,370,3.30568,-0.0103431,0.298568,0.856142
1860,359,3.30607,-0.00699788,0.297552,0.853395
1871,348,3.30581,-0.0113944,0.296956,0.851066
1882,337,3.30612,-0.00972207,0.296629,0.848568
1893,326,3.30667,-0.00572171,0.294925,0.846264
1904,315,3.30611,-0.0107266,0.294814,0.843581
1915,304,3.30614,-0.00679052,0.295117,0.842114
1926,293,3.30395,-0.0151468,0.29556,0.839698
1937,282,3.30441,-0.0101102,0.294114,0.836745
1948,271,3.30393,-0.0144998,0.293519,0.834476
1959,260,3.30466,-0.00940147,0.292112,0.831655
1970,249,3.30483,-0.0137606,0.291077,0.829494
1981,238,3.30476,-0.0105399,0.290533,0.826572
1992,227,3.30511,-0.00809192,0.28951,0.824524
2003,216,3.3051,-0.00750597,0.289394,0.82252
2014,205,3.3046,-0.0126218,0.28928,0.81982
2025,194,3.30308,-0.0118407,0.288826,0.817733
2036,183,3.30347,-0.00853606,0.287843,0.81495
2047,172,3.30363,-0.00847057,0.285507,0.811823
2058,161,3.30339,-0.0147049,0.285381,0.8098
2069,150,3.30397,-0.0104634,0.283966,0.807664
2080,139,3.30372,-0.00821382,0.283367,0.805281
2091,128,3.30373,-0.00996517,0.281961,0.802304
2102,117,3.30423,-0.00585034,0.280495,0.799643
2113,106,3.30363,-0.0110222,0.279927,0.797537
2124,95,3.30159,-0.0103356,0.279925,0.795013
2135,84,3.30203,-0.00957819,0.279374,0.793248
2146,73,3.3012,-0.0131111,0.278342,0.789106
2157,62,3.30151,-0.00900003,0.277402,0.787953
2168,51,3.30098,-0.0141101,0.276863,0.785467
2179,40,3.30134,-0.00996458,0.276012,0.783133
2190,29,3.30137,-0.0127445,0.274017,0.780801
2201,18,3.30105,-0.00760508,0.272598,0.777666
2212,7,3.3009,-0.00865031,0.270757,0.775069
2216,3,3.30001,-0.00831923,0.270754,0.773898