File: hust_correlation_analysis/matrices/HUST_3-2_cycle_feature_matrix.csv
cycle_number,rul,voltage,current,capacity,charge_capacity
1,2285,3.32202,0.014119,0.277543,1.02428
12,2274,3.30978,-0.0216166,0.289572,1.0087
23,2263,3.3118,-0.0225607,0.287574,1.01474
34,2252,3.3152,-0.0208682,0.284543,1.0172
45,2241,3.3155,-0.0208515,0.283678,1.01767
56,2230,3.31586,-0.0219265,0.283234,1.01759
67,2219,3.31689,-0.0201622,0.282281,1.01612
78,2208,3.31613,-0.0232276,0.282903,1.01567
89,2197,3.31784,-0.0202312,0.280862,1.01427
100,2186,3.31707,-0.0225583,0.281692,1.0139
111,2175,3.31798,-0.0196675,0.28031,1.01223
122,2164,3.31736,-0.02108,0.281141,1.01105
133,2153,3.31595,-0.0224614,0.281572,1.01016
144,2142,3.31757,-0.0204879,0.281169,1.00901
155,2131,3.31644,-0.0211885,0.281003,1.00818
166,2120,3.31576,-0.0225457,0.281445,1.00757
177,2109,3.31675,-0.0206338,0.280887,1.00614
188,2098,3.31534,-0.0221653,0.281758,1.00499
199,2087,3.3153,-0.022681,0.281756,1.00473
210,2076,3.31609,-0.0201268,0.280771,1.00383
221,2065,3.3159,-0.0214283,0.281193,1.00295
232,2054,3.31474,-0.0222135,0.281993,1.00233
243,2043,3.31632,-0.0201932,0.280642,1.00121
254,2032,3.31539,-0.0209483,0.28105,1.00051
265,2021,3.31467,-0.023146,0.281876,1.00011
276,2010,3.314,-0.024047,0.281894,0.999747
287,1999,3.31592,-0.0213316,0.280466,0.999141
298,1988,3.31426,-0.0228718,0.281356,0.998002
309,1977,3.31479,-0.0234358,0.281343,0.9977
320,1966,3.31316,-0.024888,0.281797,0.996845
331,1955,3.31513,-0.0222715,0.281167,0.995698
342,1944,3.31404,-0.0237313,0.281338,0.995008
353,1933,3.31398,-0.024294,0.281243,0.994776
364,1922,3.31336,-0.0249965,0.281236,0.994424
375,1911,3.31462,-0.0213346,0.280262,0.992811
386,1900,3.31465,-0.0219458,0.280254,0.992503
397,1889,3.31324,-0.022747,0.280701,0.991912
408,1878,3.31536,-0.0206285,0.279711,0.990802
419,1867,3.31479,-0.0213704,0.279706,0.990438
430,1856,3.3133,-0.0222387,0.280607,0.989605
441,1845,3.31354,-0.0228292,0.280595,0.989292
452,1834,3.31481,-0.0209223,0.279833,0.988109
463,1823,3.31368,-0.0216262,0.280066,0.98757
474,1812,3.31385,-0.0222192,0.280053,0.98725
485,1801,3.31324,-0.0230428,0.280623,0.986732
496,1790,3.31158,-0.0237679,0.280934,0.986013
507,1779,3.31435,-0.0208316,0.279046,0.985746
518,1768,3.31397,-0.0216377,0.279486,0.9851
529,1757,3.31275,-0.0231254,0.280025,0.984165
540,1746,3.31185,-0.0239131,0.280395,0.983631
551,1735,3.31388,-0.0210419,0.278935,0.983019
562,1724,3.31328,-0.0226604,0.279844,0.981831
573,1713,3.31249,-0.0233065,0.27984,0.981541
584,1702,3.31203,-0.0239459,0.279824,0.981436
595,1691,3.31325,-0.0213021,0.278848,0.980347
606,1680,3.31307,-0.0219123,0.278826,0.980006
617,1669,3.31273,-0.0233972,0.279296,0.979153
628,1658,3.31398,-0.0205261,0.2783,0.978339
639,1647,3.31318,-0.0213905,0.278754,0.977707
650,1636,3.31252,-0.0228635,0.279216,0.976851
661,1625,3.31188,-0.0235596,0.279225,0.97646
672,1614,3.31254,-0.0216494,0.278673,0.973568
683,1603,3.31241,-0.0222968,0.278666,0.974712
694,1592,3.31193,-0.0228912,0.27866,0.974426
705,1581,3.31093,-0.0237952,0.279116,0.973778
716,1570,3.31247,-0.0216509,0.278107,0.972583
727,1559,3.31196,-0.0223384,0.278097,0.972259
738,1548,3.3108,-0.0239127,0.279027,0.97111
749,1537,3.31043,-0.0246728,0.279021,0.970753
760,1526,3.31194,-0.0226633,0.278023,0.969551
771,1515,3.3118,-0.0232214,0.278026,0.969313
782,1504,3.31093,-0.0246736,0.278479,0.968405
793,1493,3.31224,-0.0218641,0.277451,0.96744
804,1482,3.31132,-0.0234358,0.277923,0.966542
815,1471,3.31067,-0.0241936,0.277911,0.966152
826,1460,3.31137,-0.0221235,0.277601,0.964742
837,1449,3.31126,-0.0228312,0.277376,0.96442
848,1438,3.31098,-0.0242263,0.277365,0.963776
859,1427,3.31164,-0.0220547,0.276817,0.96233
870,1416,3.31099,-0.0229167,0.276797,0.961884
881,1405,3.31013,-0.0243701,0.277293,0.961122
892,1394,3.31178,-0.022193,0.276257,0.959837
903,1383,3.31059,-0.023887,0.276733,0.959124
914,1372,3.30958,-0.0253982,0.277208,0.958007
925,1361,3.3109,-0.0224423,0.276184,0.957102
936,1350,3.30963,-0.0240189,0.276665,0.956202
947,1339,3.30917,-0.0255393,0.277135,0.955306
958,1328,3.31,-0.0233627,0.276108,0.954043
969,1317,3.3092,-0.0249137,0.276583,0.953136
980,1306,3.31015,-0.0226986,0.275549,0.951877
991,1295,3.30971,-0.0233568,0.275533,0.951555
1002,1284,3.30802,-0.0258398,0.276506,0.950055
1013,1273,3.31,-0.0227317,0.274989,0.949433
1024,1262,3.30864,-0.0252506,0.275969,0.947935
1035,1251,3.30946,-0.0229287,0.274931,0.946699
1046,1240,3.30848,-0.0244952,0.275401,0.945763
1057,1229,3.30765,-0.0261562,0.275895,0.944852
1068,1218,3.30877,-0.0239844,0.274858,0.943563
1079,1207,3.30764,-0.0255027,0.275425,0.942645
1090,1196,3.30848,-0.0232579,0.274515,0.941392
1101,1185,3.30748,-0.0249264,0.274799,0.940492
1112,1174,3.30838,-0.0235177,0.274256,0.938657
1123,1163,3.30715,-0.0251819,0.274756,0.937738
1134,1152,3.30654,-0.026622,0.274739,0.937099
1145,1141,3.30809,-0.024279,0.273719,0.935955
1156,1130,3.30664,-0.025912,0.274197,0.934983
1167,1119,3.30739,-0.0245726,0.27364,0.933042
1178,1108,3.30634,-0.026241,0.274134,0.932347
1189,1097,3.30734,-0.0239008,0.273087,0.930847
1200,1086,3.30682,-0.0253373,0.273076,0.930238
1211,1075,3.30739,-0.0240272,0.272552,0.928384
1222,1064,3.30606,-0.0256085,0.273033,0.927426
1233,1053,3.30503,-0.0273072,0.273527,0.926468
1244,1042,3.30577,-0.0258823,0.272998,0.924624
1255,1031,3.30501,-0.0273836,0.272989,0.923998
1266,1020,3.30597,-0.0250389,0.271661,0.922741
1277,1009,3.3042,-0.027607,0.272951,0.921192
1288,998,3.30542,-0.0253277,0.271904,0.919909
1299,987,3.30432,-0.0270751,0.272411,0.918958
1310,976,3.30545,-0.0254,0.271365,0.91743
1321,965,3.30371,-0.0280217,0.272382,0.915856
1332,954,3.30464,-0.0257144,0.271333,0.914566
1343,943,3.30404,-0.0272137,0.271335,0.915272
1354,932,3.30478,-0.0258253,0.270789,0.912046
1365,921,3.30308,-0.0284891,0.27182,0.910467
1376,910,3.30467,-0.0259399,0.270247,0.909527
1387,899,3.30258,-0.0286871,0.271279,0.907898
1398,888,3.30371,-0.0261477,0.27084,0.906648
1409,877,3.30194,-0.0288815,0.271251,0.905032
1420,866,3.30358,-0.0262893,0.269656,0.904046
1431,855,3.30171,-0.029077,0.270707,0.902446
1442,844,3.30306,-0.0273519,0.269646,0.900896
1453,833,3.30151,-0.0290962,0.270363,0.899891
1464,822,3.30272,-0.0272851,0.269073,0.898311
1475,811,3.30336,-0.0260008,0.268621,0.89632
1486,800,3.30157,-0.0276757,0.269052,0.895351
1497,789,3.30277,-0.0260797,0.268183,0.893495
1508,778,3.30069,-0.0288768,0.269054,0.892124
1519,767,3.30177,-0.027132,0.268608,0.890501
1530,756,3.2998,-0.0299945,0.269686,0.888873
1541,745,3.30093,-0.0283829,0.267993,0.8873
1552,734,3.30147,-0.0267516,0.267441,0.88531
1563,723,3.30009,-0.0294005,0.267982,0.884052
1574,712,3.3003,-0.0278454,0.26746,0.882124
1585,701,3.29889,-0.0305486,0.268003,0.880831
1596,690,3.30016,-0.0287738,0.267554,0.879199
1607,679,3.30067,-0.0272215,0.266387,0.877245
1618,668,3.29889,-0.029944,0.266937,0.875964
1629,657,3.29909,-0.0283871,0.266395,0.873932
1640,646,3.30035,-0.0266557,0.265965,0.872329
1651,635,3.29779,-0.0304865,0.266403,0.86886
1662,624,3.2983,-0.0287991,0.265862,0.868263
1673,613,3.29645,-0.0316094,0.266258,0.866928
1684,602,3.297,-0.0309325,0.265969,0.86463
1695,591,3.29798,-0.0292008,0.264784,0.862892
1706,580,3.29814,-0.0275947,0.264312,0.860838
1717,569,3.29588,-0.0290495,0.26483,0.858933
1728,558,3.29604,-0.0352684,0.263714,0.856627
1739,547,3.29786,-0.0286101,0.26146,0.854928
1750,536,3.29463,-0.035126,0.263545,0.852911
1761,525,3.29511,-0.0390389,0.261482,0.850601
1772,514,3.29627,-0.0321302,0.259862,0.848949
1783,503,3.29655,-0.0290119,0.258095,0.846555
1794,492,3.29499,-0.0304116,0.258078,0.844882
1805,481,3.29541,-0.034311,0.256398,0.842609
1816,470,3.29621,-0.028512,0.254707,0.840289
1827,459,3.29629,-0.0349793,0.253576,0.837969
1838,448,3.29696,-0.029193,0.251885,0.835631
1849,437,3.29427,-0.0333354,0.253003,0.833847
1860,426,3.29436,-0.0326784,0.25243,0.831219
1871,415,3.29459,-0.036588,0.250732,0.82897
1882,404,3.29548,-0.0358136,0.249587,0.826928
1893,393,3.29667,-0.0272247,0.247311,0.824626
1904,382,3.29313,-0.0414112,0.248439,0.822888
1915,371,3.2938,-0.0356108,0.246652,0.820188
1926,360,3.29525,-0.0294029,0.244426,0.818249
1937,349,3.29514,-0.0359251,0.243258,0.815942
1948,338,3.29508,-0.0312144,0.242095,0.812858
1959,327,3.29547,-0.0277926,0.24094,0.810546
1970,316,3.29495,-0.0373151,0.240317,0.808144
1981,305,3.29258,-0.0400048,0.240874,0.805822
1992,294,3.29332,-0.033829,0.239144,0.803521
2003,283,3.29391,-0.040434,0.237407,0.801805
2014,272,3.29341,-0.0383368,0.236784,0.798483
2025,261,3.29386,-0.0348623,0.235601,0.796154
2036,250,3.29429,-0.0400871,0.233865,0.79355
2047,239,3.29423,-0.0366209,0.232658,0.791147
2058,228,3.29431,-0.0369342,0.232012,0.788416
2069,217,3.29534,-0.0278202,0.229704,0.786126
2080,206,3.29179,-0.0411691,0.230259,0.783855
2091,195,3.29144,-0.0389626,0.2296,0.780748
2102,184,3.29288,-0.0323009,0.227274,0.778798
2113,173,3.29165,-0.0406674,0.226611,0.775751
2124,162,3.2918,-0.0400668,0.225941,0.773316
2135,151,3.29267,-0.0317834,0.223604,0.77067
2146,140,3.29243,-0.0400169,0.222375,0.768038
2157,129,3.29183,-0.0422107,0.222255,0.765631
2168,118,3.29304,-0.0338445,0.219904,0.762976
2179,107,3.29212,-0.031471,0.219215,0.759889
2190,96,3.29222,-0.0369848,0.217417,0.75727
2201,85,3.29335,-0.0329789,0.215616,0.755317
2212,74,3.29223,-0.0418153,0.214906,0.752243
2223,63,3.29254,-0.039223,0.21364,0.749534
2234,52,3.29296,-0.0335431,0.211818,0.746876
2245,41,3.29241,-0.0311757,0.2111,0.74401
2256,30,3.29333,-0.0366487,0.208733,0.741559
2267,19,3.29238,-0.0371888,0.209149,0.738439
2278,8,3.29276,-0.0313532,0.206701,0.735798
2283,3,3.29009,-0.046978,0.207803,0.734091