File: hust_correlation_analysis/matrices/HUST_3-7_cycle_feature_matrix.csv
cycle_number,rul,voltage,current,capacity,charge_capacity
1,2481,3.32318,-0.0162809,0.282736,0.987881
13,2469,3.312,-0.0199989,0.286373,0.98148
25,2457,3.31405,-0.0186078,0.284398,0.980527
37,2445,3.3139,-0.0217454,0.284361,0.980353
49,2433,3.31635,-0.0196575,0.282848,0.979357
61,2421,3.31589,-0.0209566,0.282821,0.978745
73,2409,3.3154,-0.022435,0.282821,0.97813
85,2397,3.31724,-0.0203273,0.281779,0.977177
97,2385,3.3165,-0.0217769,0.281337,0.976625
109,2373,3.31636,-0.0224853,0.281317,0.976264
121,2361,3.31754,-0.0204885,0.280314,0.975104
133,2349,3.31724,-0.0211222,0.280298,0.974777
145,2337,3.31694,-0.0218693,0.280306,0.974497
157,2325,3.31814,-0.0197234,0.279269,0.973272
169,2313,3.31823,-0.0204896,0.279258,0.972926
181,2301,3.31763,-0.0212374,0.279288,0.972709
193,2289,3.31655,-0.0221038,0.279748,0.972074
205,2277,3.31872,-0.0198141,0.278262,0.971233
217,2265,3.31825,-0.0206819,0.278729,0.970607
229,2253,3.31789,-0.0214612,0.278722,0.970261
241,2241,3.31752,-0.0220916,0.278716,0.969966
253,2229,3.31767,-0.0228219,0.278719,0.969679
265,2217,3.31908,-0.0200751,0.277689,0.968739
277,2205,3.31886,-0.0199022,0.277193,0.968972
289,2193,3.31846,-0.0205658,0.277622,0.968307
301,2181,3.31867,-0.0205502,0.277153,0.968558
313,2169,3.31828,-0.0214052,0.277609,0.967904
325,2157,3.31794,-0.0229402,0.27764,0.967373
337,2145,3.32006,-0.0191047,0.275655,0.967352
349,2133,3.31927,-0.0206989,0.276139,0.966479
361,2121,3.31903,-0.0206525,0.276129,0.966471
373,2109,3.3187,-0.0214171,0.276124,0.966132
385,2097,3.31874,-0.0222243,0.276141,0.965852
397,2085,3.31798,-0.0229677,0.276599,0.965251
409,2073,3.32006,-0.0208081,0.275119,0.964395
421,2061,3.31952,-0.0208736,0.275103,0.964307
433,2049,3.31879,-0.022329,0.27558,0.963465
445,2037,3.3182,-0.0230826,0.275587,0.963186
457,2025,3.31983,-0.0201728,0.274986,0.962245
469,2013,3.31944,-0.0208931,0.27456,0.962022
481,2001,3.31937,-0.0216895,0.274545,0.961647
493,1989,3.31906,-0.0224285,0.274562,0.961398
505,1977,3.3181,-0.0233096,0.275041,0.960802
517,1965,3.32035,-0.0202544,0.273511,0.960149
529,1953,3.31984,-0.0198709,0.273533,0.959173
541,1941,3.31978,-0.0216784,0.273501,0.959524
553,1929,3.31959,-0.0225437,0.273504,0.959171
565,1917,3.31917,-0.0231786,0.27349,0.958864
577,1905,3.3207,-0.02038,0.27244,0.957879
589,1893,3.3203,-0.0210927,0.272462,0.957668
601,1881,3.32013,-0.0218942,0.272444,0.957271
613,1869,3.31956,-0.0225577,0.272469,0.957093
625,1857,3.31881,-0.0234076,0.272917,0.956411
637,1845,3.32094,-0.0204408,0.271488,0.9554
649,1833,3.32043,-0.0211409,0.271418,0.955537
661,1821,3.32042,-0.0218872,0.271402,0.955166
673,1809,3.31945,-0.0235359,0.271899,0.954317
685,1797,3.32139,-0.0198513,0.270383,0.953988
697,1785,3.3208,-0.0213088,0.270853,0.95313
709,1773,3.32044,-0.0201028,0.270394,0.952704
721,1761,3.3204,-0.0208194,0.270836,0.952394
733,1749,3.3201,-0.0215749,0.270391,0.952078
745,1737,3.32148,-0.0186434,0.269333,0.949705
757,1725,3.3213,-0.0213946,0.269794,0.950923
769,1713,3.32091,-0.0220887,0.269794,0.950641
781,1701,3.3205,-0.0228392,0.269787,0.950298
793,1689,3.31975,-0.0238062,0.270269,0.949689
805,1677,3.32148,-0.020674,0.268744,0.949095
817,1665,3.32115,-0.021465,0.268748,0.948774
829,1653,3.32003,-0.0211547,0.269224,0.947469
841,1641,3.31961,-0.0219346,0.269216,0.947108
853,1629,3.32202,-0.0206209,0.268261,0.946905
865,1617,3.3211,-0.0196093,0.268275,0.946163
877,1605,3.32097,-0.0224379,0.268129,0.945866
889,1593,3.32082,-0.0218205,0.267692,0.94527
901,1581,3.32251,-0.0189403,0.266628,0.944289
913,1569,3.32177,-0.021617,0.267088,0.944096
925,1557,3.32103,-0.0224397,0.267547,0.942117
937,1545,3.32083,-0.0239884,0.267539,0.942797
949,1533,3.32237,-0.0217028,0.266496,0.941643
961,1521,3.32121,-0.0225634,0.26695,0.940965
973,1509,3.32023,-0.0222288,0.266977,0.939973
985,1497,3.32199,-0.0190505,0.265439,0.939382
997,1485,3.32142,-0.020728,0.266349,0.938198
1009,1473,3.32082,-0.0214518,0.265917,0.938147
1021,1461,3.32224,-0.0192474,0.264848,0.936859
1033,1449,3.32189,-0.0199938,0.26484,0.936534
1045,1437,3.32089,-0.021584,0.265312,0.935608
1057,1425,3.31967,-0.0243956,0.266239,0.93508
1069,1413,3.32133,-0.0221678,0.265176,0.933816
1081,1401,3.32059,-0.023861,0.265654,0.932867
1093,1389,3.32189,-0.0215834,0.264605,0.931672
1105,1377,3.32146,-0.0202928,0.264122,0.931254
1117,1365,3.32071,-0.0238808,0.264584,0.930676
1129,1353,3.32241,-0.0194899,0.263051,0.929393
1141,1341,3.32126,-0.0203869,0.263518,0.928739
1153,1329,3.32,-0.0240565,0.264464,0.927875
1165,1317,3.32145,-0.0217541,0.2634,0.926656
1177,1305,3.32055,-0.0213353,0.263407,0.925639
1189,1293,3.31944,-0.0229528,0.263899,0.924767
1201,1281,3.32086,-0.0205149,0.262811,0.923514
1213,1269,3.32015,-0.0214172,0.262803,0.923124
1225,1257,3.32147,-0.0189725,0.261743,0.921999
1237,1245,3.32049,-0.0207312,0.262203,0.92092
1249,1233,3.3194,-0.0245159,0.263168,0.920045
1261,1221,3.32129,-0.0211973,0.26219,0.919425
1273,1209,3.32018,-0.0229066,0.26207,0.918435
1285,1197,3.31891,-0.0234534,0.262581,0.91683
1297,1185,3.32041,-0.0222673,0.261482,0.916244
1309,1173,3.31955,-0.0239867,0.261967,0.915274
1321,1161,3.32114,-0.0202043,0.260406,0.913688
1333,1149,3.31992,-0.0239956,0.261379,0.912814
1345,1137,3.3186,-0.025736,0.261868,0.911842
1357,1125,3.31979,-0.0232973,0.260776,0.910581
1369,1113,3.3187,-0.0228248,0.260779,0.90959
1381,1101,3.31984,-0.0204933,0.259694,0.908309
1393,1089,3.31873,-0.0222568,0.260189,0.907347
1405,1077,3.31934,-0.0207448,0.259587,0.90542
1417,1065,3.318,-0.0223862,0.260097,0.904571
1429,1053,3.31925,-0.0199067,0.258986,0.90186
1441,1041,3.31755,-0.0225007,0.259987,0.901675
1453,1029,3.31604,-0.0243469,0.260501,0.900742
1465,1017,3.31762,-0.022706,0.259393,0.899094
1477,1005,3.31606,-0.0244239,0.259887,0.898122
1489,993,3.31751,-0.0228477,0.258989,0.896471
1501,981,3.31514,-0.0270066,0.260296,0.895187
1513,969,3.31662,-0.0229802,0.258692,0.893628
1525,957,3.31757,-0.0214488,0.25808,0.891628
1537,945,3.3165,-0.0253157,0.259184,0.891001
1549,933,3.31683,-0.0238553,0.257986,0.889039
1561,921,3.31484,-0.0265713,0.259015,0.887433
1573,909,3.31612,-0.024888,0.258089,0.885736
1585,897,3.31438,-0.0275604,0.258416,0.884503
1597,885,3.3147,-0.025889,0.257814,0.882553
1609,873,3.31554,-0.0243856,0.25721,0.880524
1621,861,3.31375,-0.0249159,0.257239,0.879265
1633,849,3.31361,-0.0264036,0.25769,0.876698
1645,837,3.31471,-0.024678,0.256559,0.875034
1657,825,3.3123,-0.0260165,0.257107,0.873165
1669,813,3.31292,-0.0245092,0.256505,0.871104
1681,801,3.31367,-0.0226498,0.255362,0.869449
1693,789,3.31419,-0.0219242,0.254984,0.867193
1705,777,3.31166,-0.0256481,0.255854,0.865231
1717,765,3.31231,-0.0239859,0.255252,0.863199
1729,753,3.31237,-0.0214734,0.254119,0.86069
1741,741,3.31028,-0.0332103,0.254631,0.859457
1753,729,3.31103,-0.027489,0.25292,0.857112
1765,717,3.31162,-0.0244592,0.25178,0.854764
1777,705,3.31242,-0.0202185,0.250608,0.852713
1789,693,3.30983,-0.0334921,0.251145,0.851356
1801,681,3.31075,-0.0279224,0.249457,0.848817
1813,669,3.31095,-0.0245425,0.248284,0.846485
1825,657,3.3114,-0.0213269,0.247312,0.844128
1837,645,3.30837,-0.0351006,0.248204,0.84214
1849,633,3.30873,-0.031802,0.24703,0.839795
1861,621,3.30973,-0.0259612,0.245295,0.837432
1873,609,3.31086,-0.0216083,0.243555,0.835701
1885,597,3.31062,-0.0306478,0.242926,0.832195
1897,585,3.30874,-0.029568,0.242929,0.831478
1909,573,3.30929,-0.0237789,0.241192,0.829095
1921,561,3.30941,-0.0228978,0.240555,0.826788
1933,549,3.30961,-0.0296701,0.239357,0.824393
1945,537,3.30976,-0.0261791,0.238157,0.822077
1957,525,3.30769,-0.0277574,0.238704,0.820107
1969,513,3.30806,-0.0243318,0.238115,0.817761
1981,501,3.30814,-0.0234445,0.236846,0.815424
1993,489,3.3094,-0.0273926,0.234534,0.813461
2005,477,3.30707,-0.0254901,0.23451,0.81171
2017,465,3.30785,-0.0244052,0.233294,0.809734
2029,453,3.30926,-0.0302992,0.231511,0.807932
2041,441,3.30919,-0.0252165,0.230302,0.804996
2053,429,3.30683,-0.0268068,0.230844,0.803044
2065,417,3.30743,-0.0352312,0.229605,0.801338
2077,405,3.308,-0.0317892,0.228376,0.798982
2089,393,3.30854,-0.0282473,0.22715,0.796655
2101,381,3.30587,-0.0298786,0.227683,0.794666
2113,369,3.30632,-0.0369477,0.226448,0.792339
2125,357,3.30749,-0.0321361,0.224666,0.790733
2137,345,3.30792,-0.0286575,0.223403,0.788275
2149,333,3.3063,-0.0292188,0.223389,0.786938
2161,321,3.3068,-0.0255404,0.222142,0.784627
2173,309,3.30705,-0.0326783,0.22088,0.782272
2185,297,3.30838,-0.02779,0.219065,0.780585
2197,285,3.30618,-0.0295474,0.219602,0.778597
2209,273,3.30655,-0.0248738,0.218326,0.775227
2221,261,3.30747,-0.0346905,0.217046,0.774515
2233,249,3.30521,-0.0326625,0.217038,0.772824
2245,237,3.30612,-0.0290556,0.215766,0.770466
2257,225,3.30706,-0.0268176,0.214472,0.768775
2269,213,3.30386,-0.0396009,0.215007,0.766818
2281,201,3.30537,-0.0348317,0.213187,0.765133
2293,189,3.30625,-0.0309501,0.211883,0.762781
2305,177,3.3079,-0.0259813,0.210045,0.761091
2317,165,3.30501,-0.0390423,0.210574,0.759099
2329,153,3.30502,-0.0370687,0.209803,0.757009
2341,141,3.30712,-0.0301973,0.207425,0.755083
2353,129,3.30447,-0.0310398,0.207955,0.753373
2365,117,3.30626,-0.0259257,0.206101,0.7517
2377,105,3.30633,-0.0363329,0.205324,0.749412
2389,93,3.30455,-0.0368269,0.205309,0.7481
2401,81,3.30529,-0.0320396,0.203972,0.745941
2413,69,3.30692,-0.0280405,0.202103,0.743932
2425,57,3.30425,-0.0286385,0.20263,0.742307
2437,45,3.30523,-0.039178,0.20129,0.740308
2449,33,3.3058,-0.0342853,0.199939,0.738182
2461,21,3.30441,-0.0318838,0.199401,0.736915
2473,9,3.305616,-0.0278883,0.197561,0.734566
2479,3,3.3047,-0.0289999,0.19805,0.734279