File: hust_correlation_analysis/matrices/HUST_2-4_cycle_feature_matrix.csv
cycle_number,rul,voltage,current,capacity,charge_capacity
1,1501,3.32061,-0.00905724,0.305968,1.01277
8,1494,3.30941,-0.0126256,0.311074,1.00586
15,1487,3.31091,-0.0113376,0.30972,1.00459
22,1480,3.31275,-0.00931811,0.307913,1.00392
29,1473,3.31232,-0.0105979,0.307908,1.00331
36,1466,3.31202,-0.0120426,0.307901,1.00259
43,1459,3.31417,-0.00938443,0.306092,1.00221
50,1452,3.31348,-0.0107633,0.306552,1.00129
57,1445,3.31293,-0.0114928,0.306548,1.00092
64,1438,3.31289,-0.0126918,0.306538,1.00032
71,1431,3.3139,-0.0147785,0.305959,1.00009
78,1424,3.31352,-0.0161107,0.30596,0.999434
85,1417,3.31385,-0.0120573,0.305199,0.998738
92,1410,3.31431,-0.0141514,0.305083,0.998536
99,1403,3.31415,-0.014792,0.305078,0.997949
106,1396,3.31399,-0.0160855,0.305086,0.997335
113,1389,3.31313,-0.016754,0.305547,0.996786
120,1382,3.31497,-0.0140935,0.304208,0.994779
127,1375,3.31496,-0.0147746,0.304204,0.995843
134,1368,3.31578,-0.0108045,0.303445,0.995105
141,1361,3.31456,-0.0158887,0.30421,0.995317
148,1354,3.3143,-0.0168292,0.304203,0.994832
155,1347,3.31561,-0.0142506,0.303329,0.993979
162,1340,3.31623,-0.00951875,0.302573,0.993619
169,1333,3.31591,-0.0101302,0.302573,0.993313
176,1326,3.31571,-0.0107528,0.302574,0.99301
183,1319,3.31498,-0.0116296,0.303038,0.992362
190,1312,3.31495,-0.0121218,0.303041,0.992129
197,1305,3.3146,-0.0128269,0.303039,0.991785
204,1298,3.31605,-0.0102315,0.302167,0.990931
211,1291,3.3163,-0.0102779,0.301703,0.991132
218,1284,3.31548,-0.0110195,0.301523,0.990525
225,1277,3.31538,-0.0116725,0.302157,0.990194
232,1270,3.31529,-0.0122455,0.302157,0.989916
239,1263,3.31508,-0.0128735,0.302157,0.989608
246,1256,3.31466,-0.0129255,0.302155,0.98958
253,1249,3.3166,-0.0101659,0.300804,0.988987
260,1242,3.31559,-0.0156064,0.301569,0.98902
267,1235,3.31514,-0.015787,0.302011,0.988654
274,1228,3.3152,-0.0163008,0.301558,0.988646
281,1221,3.31455,-0.0170448,0.302012,0.988033
288,1214,3.3165,-0.0143247,0.300671,0.987451
295,1207,3.31604,-0.0150482,0.300686,0.987141
302,1200,3.3159,-0.0156219,0.30099,0.986841
309,1193,3.31575,-0.015697,0.30067,0.987031
316,1186,3.31507,-0.0170785,0.301142,0.985899
323,1179,3.31678,-0.0144044,0.299809,0.985318
330,1172,3.31699,-0.0143267,0.299339,0.985557
337,1165,3.3162,-0.015031,0.299793,0.984964
344,1158,3.31617,-0.0156639,0.299802,0.984683
351,1151,3.31566,-0.0163697,0.299804,0.98434
358,1144,3.31546,-0.0170464,0.299804,0.983998
365,1137,3.31674,-0.0143923,0.298917,0.983142
372,1130,3.31663,-0.0151436,0.298932,0.982821
379,1123,3.3164,-0.0157039,0.29893,0.982532
386,1116,3.31608,-0.0164481,0.298924,0.982135
393,1109,3.31532,-0.017218,0.299386,0.981545
400,1102,3.31593,-0.0130957,0.29862,0.980847
407,1095,3.31732,-0.0107465,0.297736,0.979847
414,1088,3.31666,-0.0157313,0.298046,0.980353
421,1081,3.31604,-0.0172205,0.298521,0.979431
428,1074,3.31662,-0.0124085,0.297742,0.979035
435,1067,3.318,-0.010488,0.29686,0.977818
442,1060,3.31669,-0.0155632,0.297637,0.978085
449,1053,3.31695,-0.0118828,0.297323,0.976906
456,1046,3.31662,-0.0125155,0.297327,0.976623
463,1039,3.31632,-0.0132132,0.297327,0.976272
470,1032,3.31797,-0.010379,0.295976,0.975705
477,1025,3.31719,-0.0111668,0.296445,0.97512
484,1018,3.31732,-0.0124652,0.296447,0.974493
491,1011,3.31676,-0.0125769,0.296438,0.974404
498,1004,3.31622,-0.0133119,0.296595,0.974028
505,997,3.31817,-0.0105776,0.295738,0.973431
512,990,3.31787,-0.0111339,0.295086,0.973145
519,983,3.31761,-0.0118408,0.29508,0.972783
526,976,3.31702,-0.013311,0.295543,0.971835
533,969,3.3181,-0.0107588,0.294828,0.970939
540,962,3.31782,-0.0113315,0.294665,0.970652
547,955,3.31762,-0.0119503,0.29466,0.97034
554,948,3.31721,-0.0126718,0.294657,0.96998
561,941,3.31862,-0.0105934,0.293789,0.968863
568,934,3.31804,-0.0112784,0.293782,0.968501
575,927,3.31794,-0.0120126,0.293773,0.968122
582,920,3.31701,-0.0134526,0.294234,0.967181
589,913,3.31871,-0.0106699,0.292896,0.96662
596,906,3.31805,-0.0120736,0.293357,0.965697
603,899,3.31754,-0.0127628,0.293355,0.965348
610,892,3.31921,-0.0100171,0.292007,0.964736
617,885,3.31854,-0.0113316,0.292486,0.963911
624,878,3.31756,-0.0127806,0.292951,0.962973
631,871,3.31949,-0.00994313,0.29168,0.962395
638,864,3.31861,-0.0113569,0.292066,0.961487
645,857,3.31793,-0.012746,0.292544,0.960628
652,850,3.3172,-0.0134488,0.29255,0.960314
659,843,3.31841,-0.0113508,0.291661,0.959119
666,836,3.31767,-0.0129514,0.292133,0.95672
673,829,3.31718,-0.0135479,0.292129,0.957823
680,822,3.31838,-0.011418,0.291235,0.956645
687,815,3.31841,-0.0120545,0.290757,0.956557
694,808,3.31748,-0.0135643,0.291229,0.955591
701,801,3.31874,-0.0116073,0.290341,0.954338
708,794,3.3179,-0.0130581,0.290812,0.953415
715,787,3.3196,-0.0108666,0.289445,0.952461
722,780,3.31835,-0.0117038,0.289914,0.951837
729,773,3.31771,-0.0137204,0.290394,0.950665
736,766,3.31899,-0.0109525,0.289028,0.95001
743,759,3.31811,-0.012379,0.289497,0.949088
750,752,3.31757,-0.0137929,0.289497,0.947049
757,745,3.31851,-0.0116803,0.288617,0.947236
764,738,3.31785,-0.0130595,0.289091,0.946344
771,731,3.31887,-0.0110437,0.288198,0.945092
778,724,3.31859,-0.0124621,0.288181,0.944368
785,717,3.31791,-0.0138624,0.288182,0.943689
792,710,3.31855,-0.0118075,0.287771,0.942243
799,703,3.3178,-0.0131709,0.287769,0.941582
806,696,3.31893,-0.01121,0.286876,0.940306
813,689,3.31795,-0.010859,0.286949,0.939215
820,682,3.31928,-0.0147796,0.285505,0.937643
827,675,3.31882,-0.0143309,0.285022,0.936818
834,668,3.31813,-0.0140716,0.285015,0.935694
841,661,3.31985,-0.00996379,0.283172,0.934614
848,654,3.31832,-0.0187492,0.283638,0.933722
855,647,3.31944,-0.0148447,0.282262,0.932315
862,640,3.31873,-0.0162832,0.282253,0.931607
869,633,3.31969,-0.0130389,0.281365,0.929717
876,626,3.31849,-0.0115182,0.281363,0.927959
883,619,3.32059,-0.0147006,0.279047,0.927126
890,612,3.31944,-0.0163425,0.279509,0.926124
897,605,3.32074,-0.0129793,0.278148,0.924496
904,598,3.31916,-0.0127272,0.278615,0.92315
911,591,3.32092,-0.00924531,0.276869,0.921767
918,584,3.31959,-0.0108571,0.277237,0.920774
925,577,3.32039,-0.0168197,0.27664,0.919277
932,570,3.31913,-0.0152397,0.276339,0.917534
939,563,3.32085,-0.0111394,0.2745,0.916411
946,556,3.31998,-0.0115966,0.274498,0.915208
953,549,3.32064,-0.0168952,0.273594,0.913775
960,542,3.319,-0.0191261,0.27453,0.912318
967,535,3.32067,-0.0138338,0.272227,0.910724
974,528,3.31946,-0.0136022,0.272217,0.909566
981,521,3.32,-0.0103047,0.271303,0.907621
988,514,3.31888,-0.0180633,0.271307,0.906286
995,507,3.32004,-0.0146619,0.269939,0.904628
1002,500,3.32154,-0.0124506,0.268566,0.903647
1009,493,3.32005,-0.0109695,0.268561,0.901825
1016,486,3.32025,-0.0178801,0.268129,0.899776
1023,479,3.31935,-0.0174615,0.267656,0.898904
1030,472,3.31984,-0.0167232,0.267202,0.896791
1037,465,3.32132,-0.00875337,0.264909,0.895146
1044,458,3.31973,-0.0186152,0.265368,0.893915
1051,451,3.32119,-0.0160235,0.263997,0.891863
1058,444,3.31954,-0.0145181,0.263991,0.890039
1065,437,3.32022,-0.012953,0.263074,0.888538
1072,430,3.32121,-0.0115579,0.262155,0.886948
1079,423,3.31923,-0.0176318,0.262153,0.885191
1086,416,3.32067,-0.0128502,0.26033,0.883098
1093,409,3.32182,-0.0095454,0.258959,0.881353
1100,402,3.31896,-0.0205139,0.260332,0.879284
1107,395,3.31999,-0.0169889,0.258961,0.87765
1114,388,3.32103,-0.0143161,0.257578,0.875583
1121,381,3.31913,-0.0147411,0.258023,0.873908
1128,374,3.32003,-0.0189705,0.256648,0.872265
1135,367,3.32106,-0.0144551,0.255286,0.869839
1142,360,3.32118,-0.0116877,0.254362,0.867601
1149,353,3.31996,-0.0120146,0.253895,0.866385
1156,346,3.31996,-0.0172378,0.253418,0.863866
1163,339,3.32099,-0.0136234,0.25204,0.862222
1170,332,3.31909,-0.0150191,0.252488,0.860144
1177,325,3.31964,-0.0192804,0.251108,0.858506
1184,318,3.3201,-0.0166171,0.250173,0.856203
1191,311,3.32068,-0.0118235,0.248792,0.853801
1198,304,3.31884,-0.0130763,0.249249,0.851818
1205,297,3.31958,-0.0182398,0.247866,0.8498
1212,290,3.32028,-0.0146044,0.246481,0.84813
1219,283,3.32025,-0.0120028,0.245994,0.845575
1226,276,3.32112,-0.017145,0.244619,0.843617
1233,269,3.31929,-0.016344,0.244616,0.841459
1240,262,3.319,-0.0156313,0.244127,0.839347
1247,255,3.31972,-0.0107438,0.242741,0.836943
1254,248,3.31976,-0.0182191,0.242252,0.834797
1261,241,3.32016,-0.0133871,0.240868,0.832385
1268,234,3.3185,-0.0145344,0.240862,0.830896
1275,227,3.31855,-0.0186457,0.239923,0.827674
1282,220,3.31938,-0.0138072,0.238535,0.825212
1289,213,3.31906,-0.0131131,0.23804,0.823105
1296,206,3.31939,-0.0184408,0.237093,0.820895
1303,199,3.31993,-0.0135637,0.235702,0.818431
1310,192,3.31781,-0.0168873,0.236142,0.81684
1317,185,3.31768,-0.0209953,0.235196,0.813904
1324,178,3.31828,-0.0183851,0.234254,0.811562
1331,171,3.31878,-0.0152326,0.232855,0.80962
1338,164,3.31906,-0.0110866,0.231903,0.806593
1345,157,3.31898,-0.0166955,0.231216,0.804319
1352,150,3.31872,-0.0161974,0.230441,0.80212
1359,143,3.31711,-0.0129878,0.229994,0.799868
1366,136,3.31684,-0.021542,0.229513,0.797478
1373,129,3.31735,-0.0164213,0.228079,0.795042
1380,122,3.31777,-0.0135951,0.227117,0.792715
1387,115,3.31795,-0.0113653,0.226157,0.790159
1394,108,3.31839,-0.0147994,0.224748,0.787734
1401,101,3.3186,-0.0119078,0.223785,0.785421
1408,94,3.31546,-0.0142231,0.224662,0.782813
1415,87,3.3163,-0.0198972,0.223252,0.780793
1422,80,3.31639,-0.016852,0.222286,0.778557
1429,73,3.31725,-0.0124455,0.220879,0.7758
1436,66,3.31683,-0.0181766,0.2199,0.773527
1443,59,3.31712,-0.0150204,0.218925,0.771298
1450,52,3.31769,-0.00991626,0.217507,0.768759
1457,45,3.31458,-0.0233138,0.218383,0.766633
1464,38,3.31542,-0.0180391,0.21697,0.76418
1471,31,3.31543,-0.0150295,0.21599,0.761871
1478,24,3.31572,-0.0218237,0.215006,0.759269
1485,17,3.31556,-0.0187132,0.214025,0.756998
1492,10,3.31703,-0.0132544,0.21217,0.754814
1499,3,3.31705,-0.0109637,0.211187,0.752247