File: hust_correlation_analysis/matrices/HUST_9-5_cycle_feature_matrix.csv
cycle_number,rul,voltage,current,capacity,charge_capacity
1,2170,3.31722,0.00527521,0.268492,1.02918
11,2160,3.3077,-0.0212447,0.277143,1.01375
21,2150,3.31057,-0.0227071,0.275025,1.01961
31,2140,3.31228,-0.0219372,0.273019,1.02117
41,2130,3.31305,-0.0224506,0.272221,1.02136
51,2120,3.31607,-0.0199911,0.270458,1.02097
61,2110,3.31535,-0.0211421,0.270449,1.02039
71,2100,3.31423,-0.0223935,0.270839,1.01952
81,2090,3.31601,-0.0206461,0.269474,1.01855
91,2080,3.31534,-0.0218979,0.269854,1.01766
101,2070,3.3165,-0.0200051,0.268866,1.01651
111,2060,3.31601,-0.0213178,0.269264,1.01564
121,2050,3.31448,-0.0227028,0.270048,1.01449
131,2040,3.31588,-0.0208915,0.269071,1.01332
141,2030,3.31548,-0.0215534,0.269066,1.01297
151,2020,3.3139,-0.0229711,0.269857,1.0118
161,2010,3.31491,-0.0209137,0.268868,1.01072
171,2000,3.31455,-0.0216009,0.268869,1.01037
181,1990,3.31425,-0.0229585,0.269269,1.00946
191,1980,3.31556,-0.0203886,0.268284,1.00866
201,1970,3.31465,-0.0209928,0.268708,1.00816
211,1960,3.31422,-0.0218896,0.269079,1.00745
221,1950,3.31336,-0.023097,0.269483,1.00665
231,1940,3.31477,-0.0205425,0.268096,1.00604
241,1930,3.31421,-0.0220163,0.268591,1.00507
251,1920,3.31377,-0.0218728,0.268885,1.00487
261,1910,3.31411,-0.0224836,0.269283,1.00431
271,1900,3.3125,-0.0233478,0.269958,1.00368
281,1890,3.31359,-0.021452,0.268695,1.00246
291,1880,3.3131,-0.0221663,0.268705,1.00214
301,1870,3.31296,-0.0227483,0.268689,1.00184
311,1860,3.31477,-0.0207919,0.267702,1.0007
321,1850,3.31409,-0.0214447,0.267704,1.00039
331,1840,3.31321,-0.0222,0.2681,0.999746
341,1830,3.31301,-0.022819,0.268107,0.999473
351,1820,3.31246,-0.0234956,0.268768,0.998913
361,1810,3.31406,-0.0216041,0.267517,0.997748
371,1800,3.3131,-0.0223808,0.267933,0.997141
381,1790,3.31305,-0.0223099,0.267511,0.997366
391,1780,3.31278,-0.0235686,0.267923,0.996557
401,1770,3.31437,-0.0209092,0.266522,0.995957
411,1760,3.31338,-0.0217004,0.266927,0.995347
421,1750,3.31288,-0.0223877,0.267348,0.994811
431,1740,3.31312,-0.0229985,0.267331,0.994472
441,1730,3.31135,-0.0237323,0.26775,0.993911
451,1720,3.31351,-0.0210942,0.26634,0.9933
461,1710,3.31336,-0.0217382,0.266748,0.99277
471,1700,3.31234,-0.0231903,0.267168,0.991857
481,1690,3.31192,-0.023191,0.267154,0.99183
491,1680,3.31439,-0.0205325,0.26574,0.991204
501,1670,3.31263,-0.0219734,0.266568,0.990064
511,1660,3.31323,-0.0219905,0.266155,0.990277
521,1650,3.31247,-0.0233333,0.266662,0.989414
531,1640,3.31153,-0.0240519,0.266977,0.988828
541,1630,3.31357,-0.0213148,0.265655,0.988232
551,1620,3.31256,-0.0221121,0.265983,0.987655
561,1610,3.31266,-0.022743,0.265975,0.987334
571,1600,3.31185,-0.0235769,0.266386,0.986692
581,1590,3.31087,-0.0241896,0.266388,0.986415
591,1580,3.31341,-0.0213976,0.264963,0.985825
601,1570,3.31212,-0.0227822,0.265796,0.984712
611,1560,3.31148,-0.0235894,0.266207,0.984107
621,1550,3.31085,-0.0242837,0.266212,0.984035
631,1540,3.31343,-0.0215596,0.26479,0.983185
641,1530,3.31171,-0.022265,0.26521,0.982397
651,1520,3.31194,-0.02295,0.265598,0.982131
661,1510,3.31077,-0.0244385,0.265631,0.981378
671,1500,3.31323,-0.0209652,0.264202,0.981113
681,1490,3.3119,-0.0224377,0.264622,0.980189
691,1480,3.31238,-0.0230169,0.264622,0.979929
701,1470,3.31085,-0.0238615,0.265035,0.97929
711,1460,3.3111,-0.0244766,0.265033,0.979002
721,1450,3.31223,-0.0217525,0.264026,0.97815
731,1440,3.31117,-0.0232458,0.26444,0.97719
741,1430,3.31128,-0.0237933,0.264441,0.976944
751,1420,3.31002,-0.0246923,0.264869,0.976316
761,1410,3.31177,-0.0219545,0.263426,0.975667
771,1400,3.31188,-0.0226089,0.263427,0.974046
781,1390,3.311,-0.0238791,0.263848,0.974529
791,1380,3.30992,-0.0247748,0.264269,0.973888
801,1370,3.31205,-0.0228204,0.263258,0.97267
811,1360,3.3111,-0.0234407,0.263251,0.972343
821,1350,3.31047,-0.0242415,0.263679,0.97177
831,1340,3.31185,-0.0221445,0.26266,0.970579
841,1330,3.3115,-0.0228392,0.26265,0.970244
851,1320,3.31064,-0.023647,0.263079,0.969655
861,1310,3.30965,-0.025097,0.263498,0.968726
871,1300,3.31184,-0.0222304,0.261815,0.96814
881,1290,3.31113,-0.0236938,0.262486,0.967225
891,1280,3.31038,-0.0243644,0.262474,0.966914
901,1270,3.30945,-0.0251811,0.2629,0.966276
911,1260,3.30987,-0.0231823,0.262307,0.964829
921,1250,3.3102,-0.023975,0.262309,0.964466
931,1240,3.30916,-0.0253322,0.262734,0.963601
941,1230,3.31056,-0.0232353,0.261713,0.962412
951,1220,3.31052,-0.0239478,0.261714,0.9621
961,1210,3.30962,-0.0245184,0.261713,0.961836
971,1200,3.31088,-0.0226153,0.260688,0.960532
981,1190,3.31019,-0.024091,0.26137,0.959629
991,1180,3.30904,-0.025812,0.261996,0.95842
1001,1170,3.31015,-0.0228415,0.260518,0.957801
1011,1160,3.3095,-0.024256,0.260949,0.956909
1021,1150,3.30875,-0.0257782,0.26139,0.956001
1031,1140,3.31038,-0.0228865,0.260168,0.955171
1041,1130,3.30897,-0.0244898,0.260789,0.954167
1051,1120,3.30845,-0.0257814,0.260781,0.953551
1061,1110,3.3093,-0.0238416,0.26019,0.952048
1071,1100,3.30853,-0.0245539,0.26019,0.950437
1081,1090,3.30887,-0.022577,0.259593,0.9502
1091,1080,3.30879,-0.02402,0.259599,0.949559
1101,1070,3.30763,-0.0255072,0.260028,0.94864
1111,1060,3.30798,-0.019542,0.259559,0.947488
1121,1050,3.30808,-0.0248648,0.259434,0.946509
1131,1040,3.30678,-0.0264421,0.259878,0.945568
1141,1030,3.30831,-0.0242474,0.258836,0.944377
1151,1020,3.30708,-0.0257412,0.259272,0.943453
1161,1010,3.30839,-0.0237024,0.258237,0.94217
1171,1000,3.30787,-0.0251149,0.258678,0.941316
1181,990,3.30609,-0.0266978,0.259114,0.940349
1191,980,3.3074,-0.0245343,0.258078,0.939129
1201,970,3.30666,-0.026055,0.258523,0.938209
1211,960,3.30816,-0.0238551,0.257474,0.936991
1221,950,3.30616,-0.0254493,0.257923,0.936041
1231,940,3.30761,-0.023235,0.256872,0.934803
1241,930,3.3066,-0.0248448,0.257332,0.933887
1251,920,3.30486,-0.0272702,0.258477,0.932344
1261,910,3.3067,-0.0249231,0.257056,0.931412
1271,900,3.30551,-0.0264381,0.257174,0.930499
1281,890,3.30623,-0.0251255,0.256584,0.928641
1291,880,3.30461,-0.026802,0.257039,0.92792
1301,870,3.30585,-0.0245163,0.255979,0.926433
1311,860,3.30475,-0.0268503,0.256434,0.925182
1321,850,3.30513,-0.0206158,0.255342,0.923972
1331,840,3.30429,-0.0269389,0.256289,0.922431
1341,830,3.30519,-0.0248453,0.255233,0.921133
1351,820,3.30495,-0.0195129,0.254875,0.919232
1361,810,3.30512,-0.0249697,0.254632,0.918611
1371,800,3.30366,-0.0274151,0.255544,0.917048
1381,790,3.30454,-0.0250402,0.254482,0.915832
1391,780,3.30212,-0.027689,0.255415,0.914208
1401,770,3.30388,-0.0252631,0.253877,0.913239
1411,760,3.3029,-0.0276558,0.254748,0.911999
1421,750,3.30323,-0.0261828,0.253736,0.910127
1431,740,3.30182,-0.0279771,0.254205,0.909107
1441,730,3.30324,-0.0263407,0.253132,0.907562
1451,720,3.30088,-0.0289594,0.254403,0.90597
1461,710,3.30239,-0.0273673,0.253001,0.90439
1471,700,3.30268,-0.0260612,0.252391,0.900913
1481,690,3.30129,-0.0284573,0.252869,0.901175
1491,680,3.3017,-0.0270194,0.252265,0.899268
1501,670,3.30031,-0.0295269,0.252739,0.897962
1511,660,3.30065,-0.0281317,0.252154,0.896065
1521,650,3.30203,-0.0263236,0.251055,0.894519
1531,640,3.29963,-0.0292063,0.252256,0.89283
1541,630,3.30031,-0.0276325,0.250939,0.891233
1551,620,3.30156,-0.0259437,0.249843,0.889635
1561,610,3.29964,-0.0295051,0.250818,0.88768
1571,600,3.2994,-0.0279601,0.250209,0.885752
1581,590,3.30052,-0.0261806,0.249105,0.884189
1591,580,3.29888,-0.0288477,0.249588,0.882838
1601,570,3.29897,-0.0283021,0.249219,0.880242
1611,560,3.29703,-0.0309821,0.249982,0.878937
1621,550,3.29769,-0.0292911,0.248868,0.877295
1631,540,3.29792,-0.0285317,0.248256,0.875016
1641,530,3.29869,-0.0269612,0.247642,0.873069
1651,520,3.29637,-0.0306921,0.248651,0.871078
1661,510,3.2968,-0.0268286,0.247028,0.869352
1671,500,3.29687,-0.032698,0.245825,0.867114
1681,490,3.29889,-0.0247922,0.243274,0.865097
1691,480,3.29665,-0.0285819,0.244282,0.863115
1701,470,3.29659,-0.0370383,0.243663,0.860813
1711,460,3.29734,-0.0306045,0.241522,0.859119
1721,450,3.29414,-0.0322279,0.242531,0.856815
1731,440,3.29541,-0.0358572,0.240396,0.854806
1741,430,3.29584,-0.0326482,0.239254,0.852523
1751,420,3.29621,-0.0296171,0.238123,0.850218
1761,410,3.29703,-0.0356703,0.236483,0.848198
1771,400,3.29722,-0.0325495,0.235334,0.845884
1781,390,3.29527,-0.030231,0.234844,0.843504
1791,380,3.29538,-0.0363671,0.233693,0.841205
1801,370,3.29591,-0.030741,0.232319,0.838907
1811,360,3.29672,-0.0368565,0.230406,0.836921
1821,350,3.29711,-0.0337827,0.229259,0.834604
1831,340,3.29732,-0.0307069,0.228096,0.832243
1841,330,3.29527,-0.0306524,0.228083,0.829896
1851,320,3.29521,-0.0369589,0.226924,0.827591
1861,310,3.29525,-0.033874,0.22576,0.825243
1871,300,3.29613,-0.0290695,0.224107,0.822611
1881,290,3.29598,-0.0353015,0.222929,0.820332
1891,280,3.29694,-0.0298,0.221266,0.817924
1901,270,3.2971,-0.027446,0.220089,0.815295
1911,260,3.29375,-0.0410439,0.221053,0.813377
1921,250,3.29481,-0.0338329,0.2189,0.810643
1931,240,3.29461,-0.0331277,0.218236,0.808346
1941,230,3.29439,-0.0406175,0.217012,0.805715
1951,220,3.29418,-0.0399681,0.216299,0.803388
1961,210,3.29478,-0.0324964,0.21413,0.800675
1971,200,3.29465,-0.0391235,0.212929,0.79837
1981,190,3.29534,-0.0341722,0.211242,0.795939
1991,180,3.2958,-0.0291929,0.209559,0.793037
2001,170,3.29439,-0.0334402,0.20892,0.790774
2011,160,3.29628,-0.0335109,0.207129,0.788071
2021,150,3.29611,-0.0310995,0.205908,0.785424
2031,140,3.29653,-0.0362103,0.204214,0.782749
2041,130,3.29609,-0.035458,0.203454,0.780455
2051,120,3.29595,-0.0306763,0.202216,0.777407
2061,110,3.29229,-0.043567,0.202676,0.775085
2071,100,3.2963,-0.0306957,0.198954,0.772075
2081,90,3.29331,-0.0333533,0.199257,0.769755
2091,80,3.29586,-0.0361849,0.196303,0.766785
2101,70,3.29549,-0.033912,0.195509,0.763779
2111,60,3.29693,-0.0285015,0.193325,0.761453
2121,50,3.2957,-0.0366669,0.192519,0.75848
2131,40,3.2966,-0.0313121,0.190337,0.756133
2141,30,3.29619,-0.0300197,0.18966,0.752814
2151,20,3.29667,-0.0354195,0.187785,0.750137
2161,10,3.29616,-0.0355995,0.186955,0.747525
2168,3,3.29386,-0.0345855,0.18695,0.745511