File: hust_correlation_analysis/matrices/HUST_4-1_cycle_feature_matrix.csv
cycle_number,rul,voltage,current,capacity,charge_capacity
1,2219,3.3331,-0.0145019,0.267736,0.990407
12,2208,3.31635,-0.0179986,0.27294,0.982806
23,2197,3.31703,-0.0173807,0.271353,0.981261
34,2186,3.31698,-0.0194673,0.271344,0.980417
45,2175,3.3184,-0.0191899,0.269741,0.979891
56,2164,3.31822,-0.0207038,0.269718,0.979213
67,2153,3.31675,-0.0223766,0.270176,0.97827
78,2142,3.31832,-0.0200437,0.268582,0.977342
89,2131,3.31862,-0.0213637,0.268556,0.976773
100,2120,3.31912,-0.0193137,0.267459,0.975564
111,2109,3.31915,-0.0200642,0.267456,0.975259
122,2098,3.31893,-0.0216741,0.267477,0.974706
133,2087,3.32009,-0.0186446,0.266333,0.973733
144,2076,3.31944,-0.0201522,0.266333,0.973142
155,2065,3.31892,-0.0217719,0.266801,0.972276
166,2054,3.31854,-0.022196,0.266788,0.972074
177,2043,3.31956,-0.0194946,0.265683,0.971086
188,2032,3.31919,-0.0211635,0.266145,0.97017
199,2021,3.31879,-0.0218623,0.266146,0.969899
210,2010,3.3202,-0.0168932,0.264575,0.968875
221,1999,3.31937,-0.0185104,0.265025,0.967939
232,1988,3.31904,-0.0212534,0.265484,0.967789
243,1977,3.31891,-0.0219425,0.265462,0.967423
254,1966,3.3174,-0.0227953,0.265938,0.966868
265,1955,3.31948,-0.0196838,0.264343,0.966283
276,1944,3.31919,-0.0204648,0.264348,0.965985
287,1933,3.31957,-0.0212703,0.264314,0.965552
298,1922,3.31714,-0.0219304,0.265186,0.964547
309,1911,3.31678,-0.0228801,0.265206,0.964223
320,1900,3.31916,-0.0199328,0.263598,0.963509
331,1889,3.31843,-0.0214984,0.264091,0.962724
342,1878,3.31731,-0.0221427,0.264537,0.962137
353,1867,3.31893,-0.019217,0.262938,0.961446
364,1856,3.31866,-0.0207526,0.263421,0.96063
375,1845,3.31764,-0.0215972,0.26386,0.960176
386,1834,3.31774,-0.0231431,0.264214,0.959381
397,1823,3.31885,-0.020054,0.262739,0.958455
408,1812,3.31784,-0.0208706,0.26273,0.958138
419,1801,3.31804,-0.0217817,0.263216,0.957554
430,1790,3.31688,-0.0233432,0.263677,0.956656
441,1779,3.31909,-0.0201069,0.262394,0.956046
452,1768,3.31839,-0.0210604,0.262544,0.955455
463,1757,3.31729,-0.0218143,0.262547,0.955182
474,1746,3.31705,-0.0226723,0.262541,0.954837
485,1735,3.31827,-0.0203695,0.262445,0.953344
496,1724,3.31825,-0.0211829,0.26186,0.952985
507,1713,3.3178,-0.0219391,0.261869,0.952718
518,1702,3.31778,-0.021483,0.261889,0.951758
529,1691,3.31833,-0.0204524,0.261537,0.950906
540,1680,3.31727,-0.0193373,0.261205,0.950141
551,1669,3.31691,-0.0221381,0.261665,0.949961
562,1658,3.31652,-0.0228163,0.261652,0.949645
573,1647,3.31538,-0.0237886,0.262121,0.948986
584,1636,3.31719,-0.0214863,0.260969,0.947726
595,1625,3.31742,-0.0223187,0.260963,0.947382
606,1614,3.31646,-0.0236942,0.261454,0.946635
617,1603,3.31773,-0.0207426,0.260285,0.94556
628,1592,3.31625,-0.0215711,0.260757,0.944943
639,1581,3.31647,-0.0212055,0.260304,0.944265
650,1570,3.31502,-0.0240258,0.261225,0.943707
661,1559,3.31655,-0.0209056,0.259245,0.943018
672,1548,3.31643,-0.0204317,0.259619,0.942117
683,1537,3.31537,-0.0233244,0.260067,0.941848
694,1526,3.31758,-0.0209411,0.258928,0.940684
705,1515,3.31596,-0.0205981,0.25942,0.939355
716,1504,3.3153,-0.0212731,0.259426,0.939126
727,1493,3.31704,-0.0183181,0.258267,0.938114
738,1482,3.31643,-0.0197867,0.258685,0.937585
749,1471,3.31577,-0.0214814,0.25875,0.936655
760,1460,3.31425,-0.0223703,0.259227,0.936029
771,1449,3.31603,-0.0199129,0.258051,0.934766
782,1438,3.31574,-0.0208852,0.258044,0.934384
793,1427,3.31497,-0.0215374,0.258042,0.934133
804,1416,3.31646,-0.0192022,0.256868,0.932835
815,1405,3.31514,-0.0200989,0.257341,0.932163
826,1394,3.31471,-0.0218445,0.25792,0.931541
837,1383,3.31671,-0.0194764,0.256175,0.93028
848,1372,3.31505,-0.0209336,0.257134,0.929109
859,1361,3.31405,-0.0219042,0.257145,0.928805
870,1350,3.31616,-0.01946,0.255971,0.927572
881,1339,3.31622,-0.0210875,0.255961,0.926947
892,1328,3.31423,-0.0221459,0.25643,0.926175
903,1317,3.3153,-0.0197345,0.255257,0.924937
914,1306,3.31453,-0.0213515,0.255737,0.924001
925,1295,3.31394,-0.022247,0.255738,0.923702
936,1284,3.31554,-0.0197192,0.254558,0.922468
947,1273,3.31439,-0.0215127,0.255038,0.921476
958,1262,3.31414,-0.0230623,0.25503,0.9209
969,1251,3.31541,-0.0208224,0.253832,0.91953
980,1240,3.31464,-0.0236282,0.254306,0.919347
991,1229,3.31311,-0.0235463,0.254824,0.917959
1002,1218,3.31461,-0.0206649,0.253615,0.916763
1013,1207,3.31414,-0.0217419,0.253602,0.916337
1024,1196,3.31534,-0.0201875,0.252999,0.914786
1035,1185,3.31461,-0.0212178,0.25292,0.914135
1046,1174,3.31359,-0.0227369,0.253411,0.913252
1057,1163,3.31521,-0.0202574,0.252219,0.911989
1068,1152,3.31351,-0.0221876,0.253294,0.911
1079,1141,3.31287,-0.0237307,0.253024,0.910427
1090,1130,3.31456,-0.0203844,0.251492,0.909375
1101,1119,3.31338,-0.0222077,0.252088,0.908471
1112,1108,3.31263,-0.0238022,0.251979,0.907849
1123,1097,3.31408,-0.0228895,0.251262,0.906797
1134,1086,3.31434,-0.0222724,0.250775,0.906226
1145,1075,3.31267,-0.0238627,0.251257,0.905298
1156,1064,3.31317,-0.0214607,0.250876,0.90363
1167,1053,3.31272,-0.0232879,0.251142,0.902902
1178,1042,3.31397,-0.0205203,0.249331,0.901758
1189,1031,3.31306,-0.0238812,0.250905,0.899765
1200,1020,3.31255,-0.023452,0.249844,0.900486
1211,1009,3.31313,-0.0210808,0.249527,0.898718
1222,998,3.31326,-0.0226141,0.249108,0.898182
1233,987,3.31167,-0.024494,0.249609,0.897176
1244,976,3.31389,-0.0219707,0.248403,0.895905
1255,965,3.31232,-0.0238593,0.24891,0.894943
1266,954,3.31351,-0.0211301,0.247693,0.89393
1277,943,3.3123,-0.0229828,0.248194,0.892741
1288,932,3.31049,-0.0240449,0.248781,0.891996
1299,921,3.31273,-0.0223756,0.247476,0.890421
1310,910,3.31152,-0.02418,0.247979,0.88945
1321,899,3.31059,-0.0252345,0.247961,0.889022
1332,888,3.31181,-0.0224987,0.246711,0.887674
1343,877,3.31138,-0.024196,0.246709,0.887112
1354,866,3.31193,-0.0216426,0.245962,0.885349
1365,855,3.31062,-0.0260195,0.246995,0.884362
1376,844,3.31273,-0.0208055,0.245249,0.883132
1387,833,3.31179,-0.0227314,0.245232,0.882429
1398,822,3.31087,-0.0245651,0.245755,0.881497
1409,811,3.311175,-0.0229285,0.245032,0.879505
1420,800,3.30975,-0.0249523,0.246135,0.87848
1431,789,3.31121,-0.0220228,0.244275,0.877162
1442,778,3.31027,-0.0238077,0.244282,0.876614
1453,767,3.31215,-0.0211908,0.243014,0.875214
1464,756,3.30989,-0.0241944,0.244069,0.873542
1475,745,3.30835,-0.0261365,0.2446,0.872592
1486,734,3.31013,-0.0234312,0.24334,0.871241
1497,723,3.30773,-0.0263365,0.244397,0.869598
1508,712,3.30978,-0.023355,0.242583,0.868635
1519,701,3.30874,-0.0266184,0.243131,0.867293
1530,690,3.31097,-0.0237033,0.241853,0.866187
1541,679,3.30783,-0.0267687,0.242921,0.864261
1552,668,3.30878,-0.0239307,0.241632,0.862892
1563,657,3.30737,-0.0269986,0.242251,0.861581
1574,646,3.30897,-0.0240841,0.240872,0.860206
1585,635,3.30695,-0.0272111,0.241956,0.858507
1596,624,3.30804,-0.025267,0.240645,0.856773
1607,613,3.30897,-0.0224744,0.239344,0.855359
1618,602,3.30735,-0.0252991,0.239875,0.85407
1629,591,3.30874,-0.0236248,0.23857,0.85229
1640,580,3.30664,-0.0267406,0.23967,0.85063
1651,569,3.30723,-0.025103,0.239186,0.84839
1662,558,3.30543,-0.0294101,0.239429,0.847782
1673,547,3.30697,-0.0276011,0.23851,0.846028
1684,536,3.30828,-0.0241172,0.236789,0.843655
1695,525,3.30519,-0.0300716,0.23845,0.841821
1706,514,3.30613,-0.028061,0.237106,0.840057
1717,503,3.30353,-0.0314625,0.238844,0.838318
1728,492,3.30473,-0.0294605,0.237301,0.836576
1739,481,3.30556,-0.0285597,0.236125,0.834116
1750,470,3.30206,-0.0320254,0.237556,0.832345
1761,459,3.30291,-0.0283928,0.235938,0.830019
1772,448,3.30556,-0.0262182,0.233991,0.828633
1783,437,3.30495,-0.0254485,0.233776,0.825729
1794,426,3.30213,-0.0301754,0.234935,0.823589
1805,415,3.30293,-0.0278972,0.233583,0.821928
1816,404,3.30363,-0.0270213,0.232776,0.819355
1827,393,3.30386,-0.0262175,0.231975,0.816783
1838,382,3.30119,-0.0303998,0.232565,0.815226
1849,371,3.30215,-0.0296446,0.231769,0.812664
1860,360,3.30188,-0.0287774,0.230954,0.810058
1871,349,3.30177,-0.0279101,0.230132,0.807418
1882,338,3.30258,-0.0270891,0.229943,0.80485
1893,327,3.3025,-0.0270978,0.228504,0.801976
1904,316,3.29901,-0.0319832,0.229682,0.799703
1915,305,3.29855,-0.0310563,0.228857,0.797055
1926,294,3.29906,-0.0371246,0.226813,0.794461
1937,283,3.2998,-0.0331238,0.225367,0.792049
1948,272,3.30061,-0.0390159,0.222694,0.78985
1959,261,3.30132,-0.0349703,0.221227,0.787408
1970,250,3.30055,-0.0352055,0.220367,0.784474
1981,239,3.3017,-0.0263113,0.217711,0.782099
1992,228,3.30176,-0.0342303,0.216218,0.779861
2003,217,3.30175,-0.0315874,0.214726,0.776795
2014,206,3.30363,-0.0241838,0.212053,0.775019
2025,195,3.29991,-0.0393143,0.21263,0.772765
2036,184,3.30048,-0.0333206,0.210543,0.770181
2047,173,3.30097,-0.0414335,0.208436,0.768135
2058,162,3.30178,-0.035299,0.206326,0.765536
2069,151,3.30292,-0.0290736,0.203647,0.763373
2080,140,3.30256,-0.0376372,0.202111,0.760835
2091,129,3.30457,-0.0312359,0.199456,0.758789
2102,118,3.3042,-0.0417986,0.1979,0.755767
2113,107,3.30525,-0.0345612,0.195224,0.753843
2124,96,3.30641,-0.029661,0.19312,0.750962
2135,85,3.30663,-0.0389368,0.190998,0.748695
2146,74,3.30728,-0.029974,0.188333,0.746138
2157,63,3.30853,-0.0373327,0.185683,0.743706
2168,52,3.31282,-0.0279828,0.181454,0.740991
2179,41,3.31289,-0.0356767,0.179326,0.738099
2190,30,3.31456,-0.0273615,0.176181,0.735768
2201,19,3.31394,-0.0392942,0.174556,0.732472
2212,8,3.31806,-0.026262,0.169797,0.728861
2217,3,3.31692,-0.0394546,0.169305,0.728081