File: hust_correlation_analysis/matrices/HUST_7-7_cycle_feature_matrix.csv
cycle_number,rul,voltage,current,capacity,charge_capacity
1,1687,3.32037,-0.00534408,0.278605,1.03717
9,1679,3.30357,-0.00805367,0.309246,1.01866
17,1671,3.30326,-0.009769,0.308853,1.01783
25,1663,3.30473,-0.00804973,0.307549,1.01691
33,1655,3.30457,-0.00922604,0.307109,1.01633
41,1647,3.30413,-0.00990743,0.307099,1.0159
49,1639,3.30587,-0.00811041,0.305909,1.01498
57,1631,3.30562,-0.00871075,0.305907,1.01464
65,1623,3.30552,-0.00988058,0.305906,1.01393
73,1615,3.3069,-0.0075506,0.304725,1.01336
81,1607,3.30651,-0.00812088,0.304726,1.01302
89,1599,3.30582,-0.00879391,0.305137,1.01244
97,1591,3.30595,-0.0099419,0.305147,1.0118
105,1583,3.30742,-0.0075841,0.303952,1.01119
113,1575,3.30677,-0.0082046,0.304365,1.01063
121,1567,3.30713,-0.0086933,0.303957,1.01053
129,1559,3.30726,-0.00929599,0.303954,1.01016
137,1551,3.30648,-0.00995543,0.304358,1.00957
145,1543,3.30797,-0.00754012,0.303182,1.00905
153,1535,3.30807,-0.008159,0.303185,1.00869
161,1527,3.30784,-0.00871714,0.303178,1.00834
169,1519,3.30751,-0.00931108,0.303596,1.00782
177,1511,3.30744,-0.00928603,0.303177,1.00799
185,1503,3.30675,-0.00999434,0.303584,1.00738
193,1495,3.30833,-0.00754696,0.302398,1.00681
201,1487,3.30825,-0.00754591,0.302396,1.00683
209,1479,3.30803,-0.00817675,0.302386,1.00643
217,1471,3.30809,-0.00878632,0.302398,1.00611
225,1463,3.30799,-0.00934129,0.302662,1.00556
233,1455,3.30731,-0.00946156,0.302796,1.00572
241,1447,3.3077,-0.00942499,0.302772,1.00541
249,1439,3.30703,-0.0100412,0.302785,1.0036
257,1431,3.30871,-0.00770345,0.301594,1.00445
265,1423,3.30829,-0.00827644,0.301615,1.00418
273,1415,3.30838,-0.00883069,0.301605,1.00383
281,1407,3.30785,-0.00884993,0.301315,1.00383
289,1399,3.30832,-0.00936806,0.301201,1.00398
297,1391,3.30779,-0.010065,0.301613,1.00313
305,1383,3.30931,-0.00709418,0.30042,1.00288
313,1375,3.30971,-0.00751635,0.300013,1.00282
321,1367,3.30935,-0.00821057,0.300424,1.00222
329,1359,3.30931,-0.00879431,0.300415,1.00034
337,1351,3.30877,-0.00947546,0.300844,1.00131
345,1343,3.30898,-0.0094211,0.300427,1.00151
353,1335,3.30841,-0.0101476,0.300843,1.0009
361,1327,3.31071,-0.00749544,0.299253,1.00067
369,1319,3.31018,-0.00800839,0.299924,1.0002
377,1311,3.3103,-0.00884221,0.299656,0.999675
385,1303,3.31009,-0.00938307,0.299669,0.99937
393,1295,3.30965,-0.00942328,0.29966,0.999323
401,1287,3.30939,-0.010042,0.299658,0.998962
409,1279,3.31066,-0.00762616,0.29889,0.997998
417,1271,3.31055,-0.00826503,0.298891,0.997828
425,1263,3.31034,-0.00886192,0.298893,0.99747
433,1255,3.30982,-0.00944693,0.299303,0.998246
441,1247,3.30973,-0.00941451,0.298872,0.997082
449,1239,3.30923,-0.0100864,0.299293,0.996537
457,1231,3.31081,-0.00761712,0.298092,0.995957
465,1223,3.30996,-0.00827683,0.298507,0.995377
473,1215,3.30987,-0.00886089,0.298502,0.995027
481,1207,3.30963,-0.0095387,0.298776,0.994652
489,1199,3.3094,-0.0100976,0.298508,0.994288
497,1191,3.31118,-0.00768465,0.297335,0.993743
505,1183,3.311,-0.00831405,0.297328,0.993354
513,1175,3.31019,-0.0083635,0.297321,0.993299
521,1167,3.31021,-0.00887575,0.297314,0.992982
529,1159,3.31018,-0.00951358,0.297322,0.992632
537,1151,3.30929,-0.0101832,0.297735,0.992043
545,1143,3.31134,-0.00766871,0.296552,0.991545
553,1135,3.31109,-0.00824215,0.296557,0.991185
561,1127,3.3108,-0.00886636,0.296547,0.990798
569,1119,3.31027,-0.00955225,0.296954,0.990202
577,1111,3.31006,-0.0101481,0.29703,0.988398
585,1103,3.31165,-0.00770514,0.295773,0.989268
593,1095,3.31176,-0.00826017,0.29577,0.988929
601,1087,3.31131,-0.00892729,0.295764,0.988763
609,1079,3.31123,-0.00953676,0.295761,0.988122
617,1071,3.31057,-0.010231,0.296169,0.987549
625,1063,3.312,-0.00770914,0.294978,0.986799
633,1055,3.31184,-0.00836887,0.294982,0.986605
641,1047,3.31173,-0.00898921,0.294977,0.986225
649,1039,3.31154,-0.00960021,0.294986,0.985882
657,1031,3.31109,-0.010137,0.294983,0.985555
665,1023,3.31235,-0.00777091,0.294209,0.984751
673,1015,3.31211,-0.00827257,0.294269,0.984438
681,1007,3.31148,-0.00954273,0.294622,0.98352
689,999,3.31091,-0.00952756,0.294608,0.983491
697,991,3.31067,-0.0102734,0.29461,0.983034
705,983,3.31186,-0.00834076,0.293837,0.981967
713,975,3.31168,-0.00887454,0.29381,0.981376
721,967,3.3109,-0.00966934,0.294245,0.981005
729,959,3.31253,-0.00769957,0.293135,0.980131
737,951,3.31236,-0.00845912,0.292971,0.979692
745,943,3.31187,-0.00906793,0.29305,0.979298
753,935,3.31091,-0.00961364,0.293459,0.978782
761,927,3.31249,-0.0072982,0.292278,0.978116
769,919,3.31202,-0.00847194,0.292709,0.977307
777,911,3.31165,-0.0091052,0.292703,0.976912
785,903,3.31132,-0.0103672,0.2927,0.976119
793,895,3.3126,-0.00849439,0.291934,0.97503
801,887,3.3122,-0.00905087,0.291939,0.974712
809,879,3.31109,-0.0104822,0.292844,0.973528
817,871,3.3126,-0.00784331,0.291573,0.973007
825,863,3.31195,-0.00919626,0.291993,0.972027
833,855,3.31134,-0.00980939,0.291991,0.971646
841,847,3.31233,-0.00786118,0.291199,0.970524
849,839,3.3118,-0.00921281,0.291623,0.969556
857,831,3.3118,-0.00975314,0.291191,0.969365
865,823,3.31309,-0.00798508,0.290417,0.968163
873,815,3.31231,-0.00919428,0.29084,0.967288
881,807,3.31189,-0.00984487,0.290839,0.966914
889,799,3.31297,-0.00798909,0.290066,0.965775
897,791,3.3123,-0.00924336,0.290486,0.964861
905,783,3.31177,-0.0105566,0.290484,0.964056
913,775,3.31292,-0.0087234,0.2897,0.962855
921,767,3.312,-0.00997508,0.290133,0.961984
929,759,3.31305,-0.00809844,0.289356,0.960817
937,751,3.31245,-0.00866007,0.289345,0.960455
945,743,3.3111,-0.0100562,0.289769,0.959479
953,735,3.3122,-0.00867575,0.288995,0.958021
961,727,3.31145,-0.0100733,0.289424,0.957025
969,719,3.31211,-0.00813406,0.289074,0.955724
977,711,3.31172,-0.00949443,0.289069,0.954925
985,703,3.31128,-0.0107205,0.289067,0.954164
993,695,3.31274,-0.00882524,0.288299,0.953047
1001,687,3.31149,-0.0101283,0.288724,0.952094
1009,679,3.31197,-0.00826247,0.287934,0.950869
1017,671,3.3112,-0.0102358,0.288361,0.949559
1025,663,3.31173,-0.0083114,0.287582,0.948369
1033,655,3.31087,-0.0095285,0.288006,0.947476
1041,647,3.31251,-0.00759622,0.286807,0.946514
1049,639,3.31164,-0.00957609,0.287234,0.94518
1057,631,3.31267,-0.00759055,0.286461,0.944027
1065,623,3.3109,-0.00966167,0.287325,0.942503
1073,615,3.3117,-0.00763621,0.28655,0.941381
1081,607,3.31107,-0.00964636,0.286981,0.940028
1089,599,3.31229,-0.0077455,0.285766,0.938978
1097,591,3.31091,-0.00972711,0.28664,0.937499
1105,583,3.31135,-0.00843086,0.285855,0.935921
1113,575,3.31027,-0.0097461,0.286292,0.934978
1121,567,3.3113,-0.01347,0.285082,0.933343
1129,559,3.30991,-0.0139301,0.285516,0.931653
1137,551,3.3109,-0.0124516,0.284295,0.93034
1145,543,3.30948,-0.0129453,0.284739,0.928646
1153,535,3.31095,-0.00807307,0.28309,0.926955
1161,527,3.31119,-0.0136415,0.282745,0.925207
1169,519,3.31021,-0.0122264,0.282312,0.923653
1177,511,3.31071,-0.00919036,0.281093,0.921982
1185,503,3.30939,-0.0163598,0.281589,0.920362
1193,495,3.31118,-0.0115606,0.279434,0.91872
1201,487,3.31163,-0.00858079,0.278659,0.916847
1209,479,3.31034,-0.0105087,0.278649,0.915728
1217,471,3.31099,-0.00755659,0.277872,0.913837
1225,463,3.31191,-0.0101825,0.276665,0.911611
1233,455,3.31081,-0.0105982,0.276665,0.91011
1241,447,3.31111,-0.0143689,0.27545,0.908454
1249,439,3.31132,-0.0130858,0.27464,0.906862
1257,431,3.30972,-0.0123202,0.275104,0.904621
1265,423,3.31114,-0.0151857,0.273461,0.902416
1273,415,3.31124,-0.0121302,0.272676,0.900543
1281,407,3.30973,-0.0130977,0.272674,0.89872
1289,399,3.30943,-0.0125134,0.272762,0.896455
1297,391,3.31087,-0.0145454,0.270691,0.894875
1305,383,3.31152,-0.0122345,0.269921,0.892618
1313,375,3.3117,-0.00958485,0.269136,0.890506
1321,367,3.3097,-0.0107636,0.269563,0.888413
1329,359,3.30975,-0.0136413,0.268785,0.885901
1337,351,3.31089,-0.0112136,0.267574,0.883828
1345,343,3.31099,-0.00876503,0.266797,0.881606
1353,335,3.30866,-0.0116235,0.267646,0.879684
1361,327,3.30961,-0.0126227,0.266009,0.877262
1369,319,3.30992,-0.0103634,0.265232,0.874952
1377,311,3.31026,-0.00765107,0.264026,0.873235
1385,303,3.30947,-0.0142386,0.264093,0.870692
1393,295,3.30953,-0.0106285,0.263614,0.867964
1401,287,3.30854,-0.0153346,0.262444,0.865659
1409,279,3.30863,-0.0145692,0.261654,0.864017
1417,271,3.30886,-0.0103057,0.260879,0.861206
1425,263,3.30903,-0.0158282,0.260094,0.858589
1433,255,3.30857,-0.0151556,0.25974,0.85649
1441,247,3.30824,-0.0127228,0.259385,0.854049
1449,239,3.30923,-0.00907256,0.258183,0.851334
1457,231,3.3089,-0.0144627,0.25739,0.848793
1465,223,3.30893,-0.0101327,0.256179,0.846368
1473,215,3.30923,-0.0065047,0.255125,0.843616
1481,207,3.30582,-0.0176198,0.256243,0.841199
1489,199,3.30664,-0.0130938,0.255016,0.838828
1497,191,3.30718,-0.0113528,0.254232,0.836161
1505,183,3.30643,-0.0106928,0.253878,0.834032
1513,175,3.3069,-0.0126605,0.252662,0.829458
1521,167,3.30681,-0.0107496,0.251878,0.828397
1529,159,3.30674,-0.0081421,0.251102,0.826156
1537,151,3.30693,-0.0138639,0.250322,0.823574
1545,143,3.30569,-0.0140496,0.250435,0.820889
1553,135,3.30679,-0.00819313,0.248744,0.818037
1561,127,3.30586,-0.0158781,0.248503,0.815397
1569,119,3.3067,-0.0120409,0.247177,0.812876
1577,111,3.30644,-0.0101783,0.246396,0.810238
1585,103,3.30639,-0.0141039,0.245602,0.807316
1593,95,3.30624,-0.0133279,0.244813,0.805405
1601,87,3.30684,-0.00755255,0.243581,0.802279
1609,79,3.306175,-0.00957859,0.243674,0.799947
1617,71,3.30678,-0.013556,0.242449,0.79719
1625,63,3.30638,-0.00963211,0.241654,0.794266
1633,55,3.30689,-0.0155756,0.240384,0.791895
1641,47,3.3072,-0.0136783,0.239672,0.78927
1649,39,3.30602,-0.0138066,0.239745,0.786601
1657,31,3.3077,-0.00758779,0.237656,0.784006
1665,23,3.30749,-0.015754,0.237314,0.781523
1673,15,3.3066,-0.0138802,0.236954,0.778692
1681,7,3.30778,-0.00979418,0.235296,0.776145
1685,3,3.307,-0.0101666,0.235292,0.774706