File: hust_correlation_analysis/matrices/HUST_6-6_cycle_feature_matrix.csv
cycle_number,rul,voltage,current,capacity,charge_capacity
1,2470,3.32534,0.0390004,0.310224,1.05424
13,2458,3.30732,-0.0114779,0.342314,1.0236
25,2446,3.31194,-0.00851067,0.337191,1.03128
37,2434,3.31384,-0.00912017,0.334974,1.0354
49,2422,3.31573,-0.0107019,0.333935,1.03727
61,2410,3.31495,-0.010183,0.333069,1.03822
73,2398,3.31675,-0.0090433,0.331091,1.03707
85,2386,3.31676,-0.00902896,0.330648,1.03721
97,2374,3.31633,-0.0107105,0.330658,1.03616
109,2362,3.31798,-0.00854855,0.329101,1.03569
121,2350,3.31736,-0.00952012,0.329103,1.03508
133,2338,3.31636,-0.0108306,0.329942,1.03389
145,2326,3.31708,-0.00912231,0.329329,1.03283
157,2314,3.3164,-0.0102948,0.329677,1.03192
169,2302,3.31797,-0.00845081,0.328552,1.0311
181,2290,3.31698,-0.00966873,0.328978,1.03016
193,2278,3.31653,-0.0102643,0.329407,1.02962
205,2266,3.31729,-0.00857669,0.328709,1.02851
217,2254,3.31718,-0.00913942,0.329223,1.02793
229,2242,3.31594,-0.00936286,0.330406,1.02723
241,2230,3.31638,-0.0103824,0.330399,1.02659
253,2218,3.31695,-0.00922973,0.329271,1.02531
265,2206,3.31653,-0.00983665,0.32969,1.02472
277,2194,3.3178,-0.00806805,0.328139,1.02402
289,2182,3.31663,-0.00930667,0.329422,1.0227
301,2170,3.31611,-0.0104347,0.329429,1.02201
313,2158,3.31523,-0.011088,0.329777,1.02141
325,2146,3.3163,-0.00937996,0.329162,1.02031
337,2134,3.31575,-0.0098068,0.329169,1.02005
349,2122,3.31465,-0.0111344,0.330042,1.0189
361,2110,3.31633,-0.00868134,0.328909,1.01841
373,2098,3.31541,-0.00992418,0.329782,1.01729
385,2086,3.31464,-0.010532,0.329784,1.01692
397,2074,3.31543,-0.0088798,0.329525,1.01557
409,2062,3.31539,-0.00926068,0.329529,1.01535
421,2050,3.31449,-0.0100044,0.329965,1.01469
433,2038,3.31443,-0.0106246,0.329966,1.01431
445,2026,3.3158,-0.00885255,0.329262,1.0132
457,2014,3.31462,-0.00954167,0.329817,1.01263
469,2002,3.31496,-0.00998772,0.329704,1.01233
481,1990,3.31397,-0.0111813,0.330154,1.01143
493,1978,3.31499,-0.00889804,0.329448,1.01061
505,1966,3.31393,-0.0101341,0.330348,1.00955
517,1954,3.31368,-0.0106717,0.330335,1.00918
529,1942,3.31271,-0.011282,0.330798,1.00867
541,1930,3.3141,-0.00946822,0.329656,1.00775
553,1918,3.31397,-0.00895895,0.329336,1.00683
565,1906,3.31316,-0.00957057,0.329787,1.00629
577,1894,3.31283,-0.0101347,0.329785,1.00594
589,1882,3.31431,-0.00919089,0.329418,1.00558
601,1870,3.31308,-0.0101502,0.330313,1.00464
613,1858,3.31309,-0.0107619,0.330307,1.00424
625,1846,3.31408,-0.00892986,0.329618,1.00316
637,1834,3.31381,-0.00957331,0.329718,1.00278
649,1822,3.313,-0.00896166,0.329852,1.00187
661,1810,3.3122,-0.0114887,0.330524,1.00128
673,1798,3.31312,-0.00901144,0.329827,1.00055
685,1786,3.3134,-0.00974947,0.329743,1.00011
697,1774,3.31265,-0.00901776,0.329495,0.999283
709,1762,3.31239,-0.0114359,0.330379,0.998895
721,1750,3.3137,-0.00902383,0.329126,0.99832
733,1738,3.31345,-0.0097099,0.329573,0.997712
745,1726,3.31245,-0.0108648,0.33003,0.99683
757,1714,3.31159,-0.0116616,0.330483,0.995923
769,1702,3.31293,-0.00967842,0.329802,0.995193
781,1690,3.31218,-0.0103994,0.330251,0.993194
793,1678,3.31132,-0.0115652,0.330718,0.993703
805,1666,3.31293,-0.00918418,0.330137,0.991741
817,1654,3.31243,-0.00971175,0.32957,0.992768
829,1642,3.31218,-0.0110077,0.330021,0.991786
841,1630,3.3126,-0.00861207,0.329337,0.991041
853,1618,3.31218,-0.00982765,0.329793,0.9901
865,1606,3.31197,-0.010495,0.329874,0.989717
877,1594,3.31126,-0.0116955,0.330248,0.988792
889,1582,3.31168,-0.00992807,0.330033,0.987486
901,1570,3.31145,-0.0105203,0.330024,0.987102
913,1558,3.31078,-0.0117598,0.330496,0.98621
925,1546,3.31202,-0.00926246,0.329347,0.985647
937,1534,3.31215,-0.00921447,0.329007,0.9844
949,1522,3.30994,-0.0165936,0.330278,0.983395
961,1510,3.31174,-0.00659369,0.328782,0.98226
973,1498,3.31162,-0.0120759,0.328181,0.982028
985,1486,3.31046,-0.0118388,0.32865,0.980464
997,1474,3.31206,-0.00933764,0.327583,0.979844
1009,1462,3.31044,-0.0122163,0.328894,0.978948
1021,1450,3.30985,-0.0118807,0.328885,0.977842
1033,1438,3.31052,-0.0115532,0.329248,0.976718
1045,1426,3.3102,-0.0144701,0.327803,0.975398
1057,1414,3.31105,-0.0109478,0.326573,0.974134
1069,1402,3.31011,-0.0155113,0.327988,0.973524
1081,1390,3.30913,-0.0135266,0.327518,0.972318
1093,1378,3.31035,-0.0132598,0.326836,0.971527
1105,1366,3.3098,-0.0100414,0.326016,0.96976
1117,1354,3.30927,-0.00916463,0.32601,0.968967
1129,1342,3.30941,-0.0143328,0.325325,0.967443
1141,1330,3.30903,-0.0139685,0.32532,0.966359
1153,1318,3.31047,-0.0104562,0.324159,0.965062
1165,1306,3.30971,-0.0160666,0.324045,0.964378
1177,1294,3.31027,-0.00662354,0.323469,0.96248
1189,1282,3.3092,-0.0139716,0.323823,0.961896
1201,1270,3.30852,-0.0136329,0.323818,0.960808
1213,1258,3.30992,-0.00855232,0.322189,0.959289
1225,1246,3.30876,-0.0136332,0.322189,0.957464
1237,1234,3.30978,-0.0149627,0.321972,0.956894
1249,1222,3.30835,-0.0146609,0.322396,0.955615
1261,1210,3.30916,-0.0134568,0.322226,0.95391
1273,1198,3.30836,-0.0146692,0.322224,0.953487
1285,1186,3.30847,-0.0145465,0.322494,0.952038
1297,1174,3.30795,-0.0141343,0.322017,0.951407
1309,1162,3.30848,-0.00962024,0.320872,0.949142
1321,1150,3.30804,-0.0131321,0.320389,0.947118
1333,1138,3.3086,-0.011325,0.319704,0.944534
1345,1126,3.30809,-0.0125361,0.3197,0.945226
1357,1114,3.30866,-0.0112405,0.31949,0.943557
1369,1102,3.30785,-0.0109456,0.319485,0.942426
1381,1090,3.30818,-0.00975626,0.318907,0.940743
1393,1078,3.30803,-0.0108451,0.317388,0.93932
1405,1066,3.30764,-0.0116084,0.317661,0.937662
1417,1054,3.30672,-0.0143836,0.318606,0.93705
1429,1042,3.30765,-0.00813808,0.316966,0.934785
1441,1030,3.30626,-0.0166638,0.317361,0.933805
1453,1018,3.30683,-0.0148016,0.317343,0.932214
1465,1006,3.30597,-0.0135091,0.316372,0.930533
1477,994,3.30728,-0.00910318,0.314743,0.928283
1489,982,3.30532,-0.016121,0.315218,0.926883
1501,970,3.30644,-0.0131312,0.314064,0.925217
1513,958,3.30505,-0.0148867,0.315001,0.923876
1525,946,3.30636,-0.00956261,0.313364,0.922351
1537,934,3.30673,-0.0147816,0.313626,0.92096
1549,922,3.30576,-0.0116919,0.312607,0.918905
1561,910,3.3055,-0.013862,0.313351,0.917568
1573,898,3.30438,-0.0176361,0.314306,0.916471
1585,886,3.30536,-0.00953182,0.312209,0.91407
1597,874,3.3062,-0.00812997,0.311526,0.9126
1609,862,3.30413,-0.0153028,0.31199,0.910883
1621,850,3.3051,-0.00892408,0.311801,0.909597
1633,838,3.30359,-0.0143239,0.311792,0.907745
1645,826,3.3044,-0.0113483,0.31064,0.906035
1657,814,3.30483,-0.0101306,0.310442,0.904302
1669,802,3.30312,-0.0104817,0.310924,0.902653
1681,790,3.30403,-0.0124398,0.309285,0.900816
1693,778,3.3044,-0.0101863,0.30919,0.898544
1705,766,3.30271,-0.0122659,0.309667,0.897071
1717,754,3.30362,-0.0107453,0.30698,0.894865
1729,742,3.30405,-0.00948273,0.306784,0.893162
1741,730,3.30315,-0.0119571,0.306828,0.891695
1753,718,3.30338,-0.0146226,0.305675,0.889593
1765,706,3.3029,-0.0146733,0.306394,0.888004
1777,694,3.30166,-0.0157925,0.306393,0.886161
1789,682,3.3024,-0.0116953,0.305243,0.883706
1801,670,3.30261,-0.0141549,0.303644,0.881475
1813,658,3.30213,-0.00945608,0.30268,0.879075
1825,646,3.30239,-0.0112439,0.302974,0.878469
1837,634,3.30272,-0.00888467,0.302289,0.875914
1849,622,3.30105,-0.0148974,0.302287,0.873856
1861,610,3.30101,-0.0086388,0.30259,0.872202
1873,598,3.30125,-0.0133279,0.301912,0.869917
1885,586,3.30206,-0.0124386,0.299409,0.867388
1897,574,3.30003,-0.01189,0.29931,0.865073
1909,562,3.30032,-0.0140269,0.300088,0.863858
1921,550,3.30136,-0.010777,0.298927,0.862167
1933,538,3.30128,-0.0119017,0.299697,0.860324
1945,526,3.2999,-0.0112161,0.299222,0.858347
1957,514,3.29992,-0.0152374,0.298554,0.856219
1969,502,3.30036,-0.0127948,0.297891,0.853961
1981,490,3.30051,-0.00805537,0.296717,0.851883
1993,478,3.29865,-0.0145247,0.296718,0.849671
2005,466,3.29977,-0.0105506,0.295079,0.84707
2017,454,3.29964,-0.0092495,0.295439,0.845341
2029,442,3.30037,-0.0138676,0.29375,0.843387
2041,430,3.29749,-0.016961,0.295703,0.841308
2053,418,3.298713,-0.0125428,0.293569,0.839088
2065,406,3.29946,-0.00816201,0.292402,0.836607
2077,394,3.29911,-0.0106747,0.291753,0.834357
2089,382,3.29694,-0.0156008,0.293211,0.832714
2101,370,3.29698,-0.0186315,0.292054,0.830482
2113,358,3.29743,-0.0178736,0.291408,0.828472
2125,346,3.29778,-0.0153167,0.290738,0.826201
2137,334,3.29828,-0.0125977,0.289597,0.824256
2149,322,3.2963,-0.017291,0.289075,0.821712
2161,310,3.2973,-0.012776,0.287432,0.81946
2173,298,3.29677,-0.016602,0.286778,0.816485
2185,286,3.29799,-0.00943658,0.284648,0.814327
2197,274,3.29755,-0.0150789,0.283996,0.811784
2209,262,3.29592,-0.0142089,0.283497,0.808267
2221,250,3.29682,-0.0117168,0.282432,0.807496
2233,238,3.29667,-0.0166699,0.281769,0.80526
2245,226,3.29615,-0.00842869,0.282005,0.803212
2257,214,3.29538,-0.0194581,0.282135,0.801323
2269,202,3.29477,-0.015294,0.281419,0.798642
2281,190,3.29564,-0.0146462,0.278874,0.795689
2293,178,3.29496,-0.0123842,0.278645,0.793268
2305,166,3.29453,-0.0149886,0.277442,0.791152
2317,154,3.29583,-0.011161,0.275885,0.788381
2329,142,3.2955,-0.0085413,0.275622,0.786078
2341,130,3.2941,-0.0173952,0.276496,0.784305
2353,118,3.29297,-0.0146951,0.274955,0.782019
2365,106,3.29314,-0.0139224,0.272876,0.779064
2377,94,3.29363,-0.0112216,0.27173,0.777038
2389,82,3.29277,-0.0171629,0.271549,0.774246
2401,70,3.29435,-0.0105391,0.269068,0.771711
2413,58,3.29149,-0.0202141,0.269539,0.769379
2425,46,3.29222,-0.0167569,0.268406,0.76767
2437,34,3.29086,-0.0180296,0.269599,0.765927
2449,22,3.29112,-0.0133712,0.267957,0.763396
2461,10,3.2913,-0.011828,0.267305,0.76196
2468,3,3.28978,-0.0180413,0.266832,0.760276