File: hust_correlation_analysis/matrices/HUST_10-5_cycle_feature_matrix.csv
cycle_number,rul,voltage,current,capacity,charge_capacity
1,2032,3.30997,0.0257154,0.281011,1.04889
11,2022,3.30237,-0.00845548,0.292338,1.03053
21,2012,3.30518,-0.0082966,0.289752,1.0371
31,2002,3.30837,-0.00660005,0.287067,1.03938
41,1992,3.30839,-0.00844317,0.287118,1.04065
51,1982,3.30916,-0.00905571,0.286375,1.04065
61,1972,3.31109,-0.00677821,0.28477,1.04021
71,1962,3.31042,-0.00797418,0.284795,1.03957
81,1952,3.31015,-0.00901218,0.284791,1.03891
91,1942,3.31096,-0.00741757,0.283954,1.03777
101,1932,3.31078,-0.00843989,0.283962,1.03717
111,1922,3.31181,-0.00680107,0.28312,1.036
121,1912,3.31174,-0.00778252,0.283131,1.0357
131,1902,3.31117,-0.00838002,0.283768,1.03484
141,1892,3.31255,-0.00713655,0.282681,1.03355
151,1882,3.3118,-0.00779723,0.283048,1.03295
161,1872,3.31124,-0.00888877,0.283425,1.03212
171,1862,3.31237,-0.00658313,0.282582,1.03137
181,1852,3.31167,-0.00784026,0.28295,1.03039
191,1842,3.31086,-0.00845208,0.283315,1.0298
201,1832,3.30986,-0.00915652,0.283691,1.02919
211,1822,3.31126,-0.00679617,0.282624,1.02867
221,1812,3.31046,-0.0074684,0.283174,1.02771
231,1802,3.30938,-0.00892827,0.283901,1.02762
241,1792,3.30974,-0.00983631,0.283898,1.02708
251,1782,3.30937,-0.0108524,0.283912,1.02651
261,1772,3.31093,-0.00754357,0.282782,1.02526
271,1762,3.31008,-0.0082868,0.283073,1.02463
281,1752,3.30954,-0.0093448,0.283091,1.02405
291,1742,3.30862,-0.00940351,0.283449,1.02376
301,1732,3.31044,-0.00750727,0.282259,1.02303
311,1722,3.3101,-0.00815755,0.28262,1.0224
321,1712,3.30998,-0.00919114,0.282653,1.02187
331,1702,3.31085,-0.00696376,0.281787,1.02098
341,1692,3.31009,-0.00762,0.282181,1.02044
351,1682,3.31032,-0.00877987,0.2822,1.01981
361,1672,3.30977,-0.00924008,0.282715,1.01931
371,1662,3.31093,-0.00687664,0.281648,1.0188
381,1652,3.31007,-0.00756174,0.282015,1.01816
391,1642,3.31025,-0.00803561,0.281748,1.01794
401,1632,3.30989,-0.00918648,0.282133,1.01708
411,1622,3.31064,-0.00689872,0.281293,1.01628
421,1612,3.30972,-0.00748402,0.281664,1.01572
431,1602,3.31026,-0.00824056,0.281653,1.01522
441,1592,3.31008,-0.0086623,0.28165,1.01495
451,1582,3.3093,-0.00873535,0.281628,1.01484
461,1572,3.31073,-0.00700442,0.28081,1.01378
471,1562,3.3103,-0.00760499,0.281183,1.01301
481,1552,3.3097,-0.00820366,0.281192,1.01289
491,1542,3.30913,-0.00929089,0.281575,1.01206
501,1532,3.30926,-0.00940009,0.281545,1.01189
511,1522,3.30978,-0.00754685,0.280742,1.01095
521,1512,3.3095,-0.00828609,0.281111,1.01029
531,1502,3.30912,-0.00874979,0.281512,1.00988
541,1492,3.30992,-0.00693908,0.280672,1.00878
551,1482,3.30991,-0.00753521,0.280671,1.00841
561,1472,3.30914,-0.00802056,0.281058,1.00795
571,1462,3.30861,-0.00863145,0.281058,1.0076
581,1452,3.31083,-0.00682075,0.280108,1.00664
591,1442,3.30961,-0.00751139,0.280202,1.00602
601,1432,3.30995,-0.00814493,0.280198,1.00564
611,1422,3.30887,-0.00877544,0.280581,1.00508
621,1412,3.30812,-0.00943258,0.280963,1.00448
631,1402,3.31048,-0.00689474,0.279349,1.00419
641,1392,3.30891,-0.00821343,0.280132,1.00306
651,1382,3.30892,-0.00871491,0.280138,1.00278
661,1372,3.31012,-0.00624521,0.278902,1.00198
671,1362,3.30953,-0.00713633,0.279262,1.00144
681,1352,3.30882,-0.007663,0.279669,1.001
691,1342,3.30868,-0.00885608,0.279656,1.00026
701,1332,3.30825,-0.00949139,0.280053,0.999725
711,1322,3.30897,-0.0076076,0.279213,0.998651
721,1312,3.3091,-0.00777415,0.279198,0.998518
731,1302,3.308,-0.00891431,0.279882,0.997667
741,1292,3.30821,-0.00961747,0.279579,0.997456
751,1282,3.30897,-0.00775034,0.278484,0.996184
761,1272,3.30923,-0.00833991,0.278737,0.995787
771,1262,3.30773,-0.00962503,0.279542,0.99473
781,1252,3.30973,-0.00701799,0.278303,0.99425
791,1242,3.30837,-0.00836032,0.279091,0.993098
801,1232,3.30889,-0.00882364,0.278698,0.993016
811,1222,3.30876,-0.00699021,0.278665,0.991678
821,1212,3.3091,-0.00767335,0.278235,0.991264
831,1202,3.30808,-0.0083569,0.278226,0.990838
841,1192,3.30735,-0.0092082,0.278602,0.990083
851,1182,3.30896,-0.00717111,0.277771,0.989129
861,1172,3.30763,-0.00856144,0.278155,0.988099
871,1162,3.30741,-0.00949311,0.27858,0.98747
881,1152,3.30795,-0.0071718,0.277712,0.986544
891,1142,3.30865,-0.00791822,0.2773,0.986242
901,1132,3.30716,-0.00909021,0.278113,0.985266
911,1122,3.30812,-0.00725165,0.277259,0.984094
921,1112,3.308,-0.00855398,0.277653,0.983141
931,1102,3.30631,-0.00915235,0.278061,0.982641
941,1092,3.30836,-0.00710186,0.276813,0.981792
951,1082,3.30741,-0.00848271,0.277212,0.980823
961,1072,3.30615,-0.00980189,0.277605,0.979838
971,1062,3.30807,-0.00777544,0.276768,0.978832
981,1052,3.30722,-0.00858992,0.27675,0.978301
991,1042,3.3057,-0.0100967,0.277554,0.977059
1001,1032,3.30791,-0.00796076,0.276285,0.976198
1011,1022,3.30669,-0.00876994,0.276683,0.975542
1021,1012,3.3071,-0.00742193,0.276251,0.973958
1031,1002,3.30689,-0.00804379,0.276245,0.973577
1041,992,3.30604,-0.00931871,0.276657,0.972675
1051,982,3.3067,-0.00728028,0.275803,0.971598
1061,972,3.30626,-0.00872484,0.276206,0.970601
1071,962,3.30552,-0.00999204,0.276617,0.969697
1081,952,3.30635,-0.00812885,0.275757,0.968506
1091,942,3.30444,-0.00952369,0.276583,0.967358
1101,932,3.30607,-0.00741264,0.275311,0.966482
1111,922,3.30572,-0.00876461,0.275723,0.96554
1121,912,3.30677,-0.00741889,0.27487,0.96406
1131,902,3.30505,-0.00874657,0.275696,0.962928
1141,892,3.30366,-0.0101943,0.276109,0.961943
1151,882,3.30531,-0.00805256,0.274753,0.961097
1161,872,3.30441,-0.0101243,0.275671,0.959559
1171,862,3.3056,-0.00759151,0.274383,0.958857
1181,852,3.30415,-0.00963087,0.275208,0.957329
1191,842,3.30446,-0.00708415,0.274339,0.956443
1201,832,3.30371,-0.0090088,0.274783,0.955288
1211,822,3.30492,-0.00704039,0.273908,0.954057
1221,812,3.30414,-0.0084835,0.274309,0.953017
1231,802,3.30336,-0.0104137,0.274747,0.95182
1241,792,3.30391,-0.00853792,0.273872,0.950532
1251,782,3.30267,-0.0106052,0.274726,0.949051
1261,772,3.30386,-0.00850092,0.273442,0.948122
1271,762,3.30217,-0.0106013,0.274287,0.946587
1281,752,3.30236,-0.00919461,0.273871,0.944982
1291,742,3.30113,-0.0105661,0.274589,0.944012
1301,732,3.30245,-0.00909788,0.273432,0.942554
1311,722,3.3027,-0.00780017,0.273007,0.940822
1321,712,3.30159,-0.00986225,0.273432,0.939498
1331,702,3.30237,-0.00777088,0.272574,0.938358
1341,692,3.30135,-0.00981144,0.273009,0.937096
1351,682,3.30172,-0.00849164,0.272572,0.9353
1361,672,3.301875,-0.00781696,0.272473,0.933286
1371,662,3.30087,-0.00937918,0.272559,0.932099
1381,652,3.2996,-0.010854,0.27299,0.931099
1391,642,3.30048,-0.009324,0.272135,0.929655
1401,632,3.30068,-0.0080204,0.27169,0.927793
1411,622,3.29917,-0.0103447,0.272574,0.926184
1421,612,3.30008,-0.00859559,0.271725,0.924881
1431,602,3.30015,-0.00740336,0.271291,0.92298
1441,592,3.29904,-0.0103335,0.271735,0.921249
1451,582,3.29962,-0.00892713,0.271304,0.919454
1461,572,3.29801,-0.0111848,0.271745,0.918041
1471,562,3.29902,-0.00972001,0.270854,0.91643
1481,552,3.29877,-0.00907647,0.270897,0.914115
1491,542,3.2988,-0.00763005,0.270445,0.91252
1501,532,3.29699,-0.0105285,0.270939,0.910664
1511,522,3.29757,-0.00980761,0.270519,0.908499
1521,512,3.29812,-0.00841342,0.269646,0.906881
1531,502,3.29814,-0.0075809,0.269238,0.904803
1541,492,3.2957,-0.0106221,0.270153,0.902841
1551,482,3.29592,-0.0156166,0.269275,0.90058
1561,472,3.2969,-0.0111483,0.267919,0.898177
1571,462,3.29696,-0.00785408,0.266583,0.896465
1581,452,3.29519,-0.0146684,0.266569,0.894356
1591,442,3.29651,-0.00903236,0.264783,0.891567
1601,432,3.29597,-0.00828213,0.264366,0.889446
1611,422,3.29565,-0.0152729,0.263937,0.887223
1621,412,3.29678,-0.00948233,0.262368,0.884517
1631,402,3.29662,-0.00667826,0.261274,0.882347
1641,392,3.29565,-0.0125464,0.260849,0.879509
1651,382,3.29699,-0.00672753,0.25907,0.876789
1661,372,3.29467,-0.0174138,0.259514,0.87513
1671,362,3.29445,-0.0128601,0.258164,0.872712
1681,352,3.29547,-0.0168489,0.256836,0.870019
1691,342,3.29427,-0.0169112,0.256854,0.867296
1701,332,3.29494,-0.0122279,0.255053,0.865136
1711,322,3.29545,-0.0162282,0.253709,0.862397
1721,312,3.29505,-0.0142917,0.252815,0.859761
1731,302,3.29504,-0.0105493,0.251921,0.856768
1741,292,3.29548,-0.0144473,0.250586,0.854125
1751,282,3.29364,-0.0165588,0.251049,0.851471
1761,272,3.29517,-0.0165307,0.24835,0.848786
1771,262,3.29455,-0.0143483,0.247459,0.846291
1781,252,3.29491,-0.00842838,0.246118,0.843275
1791,242,3.29474,-0.0153583,0.245219,0.840228
1801,232,3.294,-0.0134435,0.244318,0.837572
1811,222,3.29468,-0.0153529,0.242538,0.834854
1821,212,3.29351,-0.0141601,0.242081,0.831679
1831,202,3.29631,-0.0142981,0.239788,0.828735
1841,192,3.29504,-0.013026,0.238951,0.825599
1851,182,3.29574,-0.00690603,0.237156,0.823002
1861,172,3.29506,-0.0119126,0.236251,0.819429
1871,162,3.29415,-0.0119131,0.23579,0.816945
1881,152,3.29495,-0.0147861,0.234006,0.813766
1891,142,3.29352,-0.0128271,0.233533,0.811173
1901,132,3.29352,-0.017776,0.232188,0.807878
1911,122,3.29298,-0.0145148,0.23128,0.804562
1921,112,3.29558,-0.00621085,0.228581,0.801582
1931,102,3.29468,-0.0112601,0.227685,0.798354
1941,92,3.29494,-0.00786939,0.226331,0.795243
1951,82,3.29405,-0.0144888,0.225841,0.792309
1961,72,3.29288,-0.0152487,0.225369,0.789519
1971,62,3.29325,-0.0160078,0.223584,0.786076
1981,52,3.29224,-0.0160775,0.223096,0.783549
1991,42,3.29509,-0.0148185,0.219974,0.778685
2001,32,3.29422,-0.0092182,0.218732,0.776774
2011,22,3.29275,-0.00800669,0.218125,0.773554
2021,12,3.2936,-0.0110695,0.216341,0.770299
2030,3,3.29222,-0.0111731,0.216269,0.767581