File: hust_correlation_analysis/matrices/HUST_5-7_cycle_feature_matrix.csv
cycle_number,rul,voltage,current,capacity,charge_capacity
1,1450,3.32395,-0.0194511,0.278931,1.00051
8,1443,3.31115,-0.0221176,0.284097,0.993678
15,1436,3.3131,-0.0206746,0.282207,0.992753
22,1429,3.31298,-0.0227372,0.282204,0.991831
29,1422,3.31423,-0.0206888,0.280762,0.990911
36,1415,3.31448,-0.0213842,0.280529,0.990562
43,1408,3.31359,-0.0227724,0.280742,0.98991
50,1401,3.31548,-0.0198836,0.279304,0.989357
57,1394,3.31454,-0.0214101,0.279746,0.988425
64,1387,3.31532,-0.0220858,0.279307,0.988388
71,1380,3.31617,-0.0192982,0.27831,0.987556
78,1373,3.31641,-0.0206674,0.278309,0.986928
85,1366,3.31552,-0.021515,0.27831,0.986572
92,1359,3.31528,-0.02208,0.27831,0.986329
99,1352,3.31447,-0.0228476,0.278756,0.985749
106,1345,3.31672,-0.0201442,0.277319,0.985115
113,1338,3.31656,-0.0208155,0.277316,0.984816
120,1331,3.31666,-0.0215306,0.277317,0.984494
127,1324,3.31607,-0.0222031,0.277313,0.984184
134,1317,3.31532,-0.0229693,0.277757,0.983598
141,1310,3.31722,-0.0202323,0.276318,0.982983
148,1303,3.31721,-0.0209032,0.276317,0.982677
155,1296,3.31673,-0.0215622,0.276315,0.982371
162,1289,3.31718,-0.0222689,0.276314,0.98205
169,1282,3.31571,-0.0230243,0.276757,0.981473
176,1275,3.31806,-0.0202395,0.275312,0.980848
183,1268,3.3173,-0.0202916,0.275313,0.980831
190,1261,3.31766,-0.0209589,0.27531,0.980527
197,1254,3.31744,-0.0216271,0.275307,0.980215
204,1247,3.31686,-0.0224994,0.275752,0.979586
211,1240,3.31694,-0.0223587,0.275305,0.979879
218,1233,3.31686,-0.0230071,0.275304,0.979587
225,1226,3.31799,-0.0202686,0.274297,0.978696
232,1219,3.31793,-0.0210984,0.274735,0.97806
239,1212,3.31701,-0.0210708,0.274739,0.978086
246,1205,3.31739,-0.0217532,0.274736,0.97778
253,1198,3.31692,-0.0225195,0.274742,0.977447
260,1191,3.31704,-0.0231011,0.274831,0.977163
267,1184,3.31645,-0.023091,0.274736,0.977162
274,1177,3.31652,-0.0230653,0.274727,0.97713
281,1170,3.31729,-0.0203071,0.274167,0.975983
288,1163,3.31739,-0.0212262,0.274168,0.975567
295,1156,3.31706,-0.0210347,0.27372,0.975903
302,1149,3.3174,-0.0219546,0.274168,0.975248
309,1142,3.31689,-0.0225473,0.273725,0.975267
316,1135,3.31709,-0.023248,0.273727,0.974975
323,1128,3.31877,-0.0203603,0.272277,0.974374
330,1121,3.31842,-0.0211896,0.272724,0.973775
337,1114,3.31776,-0.0218989,0.273001,0.973479
344,1107,3.31757,-0.0226305,0.272732,0.973158
351,1100,3.31659,-0.0232645,0.273164,0.97259
358,1093,3.31865,-0.020536,0.27168,0.971942
365,1086,3.31853,-0.0212747,0.271718,0.971623
372,1079,3.31916,-0.0211911,0.27128,0.971923
379,1072,3.31844,-0.0219411,0.27172,0.971343
386,1065,3.3177,-0.0225853,0.271716,0.971045
393,1058,3.31973,-0.0199049,0.270268,0.970607
400,1051,3.3195,-0.0205707,0.270265,0.970053
407,1044,3.31895,-0.0213461,0.271203,0.969451
414,1037,3.31859,-0.022061,0.270965,0.969141
421,1030,3.31848,-0.0228208,0.270706,0.968798
428,1023,3.31794,-0.0234958,0.270707,0.968495
435,1016,3.32017,-0.020624,0.269253,0.968141
442,1009,3.31959,-0.020642,0.269512,0.96789
449,1002,3.3197,-0.0221343,0.269698,0.966997
456,995,3.31896,-0.0221234,0.269966,0.966995
463,988,3.31931,-0.0227451,0.269252,0.966937
470,981,3.31848,-0.0235899,0.269688,0.966303
477,974,3.32026,-0.0207119,0.268241,0.965727
484,967,3.31968,-0.0215507,0.26868,0.965105
491,960,3.32001,-0.022187,0.268236,0.965051
498,953,3.3192,-0.0229052,0.268676,0.964472
505,946,3.31836,-0.0236134,0.268677,0.964163
512,939,3.32083,-0.0207306,0.26722,0.963553
519,932,3.3201,-0.0215094,0.267656,0.962946
526,925,3.32005,-0.0222804,0.267656,0.962846
533,918,3.3196,-0.0229572,0.267653,0.962293
540,911,3.31891,-0.0236997,0.267649,0.961941
547,904,3.32069,-0.0208764,0.266632,0.961056
554,897,3.32084,-0.0214861,0.26619,0.961019
561,890,3.32023,-0.0223105,0.266636,0.960432
568,883,3.31937,-0.0230989,0.266638,0.960084
575,876,3.3197,-0.0238496,0.266637,0.959741
582,869,3.32103,-0.0208303,0.265177,0.95918
589,862,3.3207,-0.0224939,0.265622,0.958213
596,855,3.32027,-0.0231589,0.26562,0.957709
603,848,3.31983,-0.023877,0.266115,0.957574
610,841,3.3216,-0.0210433,0.26485,0.956697
617,834,3.32099,-0.0218208,0.264597,0.956339
624,827,3.32069,-0.0232161,0.264597,0.955718
631,820,3.32012,-0.0240587,0.265035,0.955092
638,813,3.32135,-0.021112,0.26357,0.954485
645,806,3.32098,-0.0226264,0.264014,0.953571
652,799,3.32044,-0.0232929,0.264013,0.953273
659,792,3.32213,-0.0211091,0.262634,0.952328
666,785,3.32235,-0.0218975,0.262542,0.95195
673,778,3.32019,-0.0227271,0.263426,0.951116
680,771,3.31981,-0.0241772,0.263425,0.950453
687,764,3.32221,-0.0213444,0.261953,0.949783
694,757,3.32067,-0.0228034,0.262392,0.948882
701,750,3.32112,-0.0234998,0.26195,0.948797
708,743,3.32201,-0.0214249,0.261361,0.947312
715,736,3.32107,-0.0221117,0.261359,0.946997
722,729,3.32088,-0.0237152,0.261797,0.946009
729,722,3.32223,-0.0207642,0.26082,0.945387
736,715,3.3219,-0.0222459,0.260324,0.944735
743,708,3.32123,-0.0237929,0.260765,0.943804
750,701,3.32211,-0.0216108,0.259735,0.94259
757,694,3.32084,-0.0224153,0.260176,0.941982
764,687,3.32069,-0.0239808,0.260179,0.94131
771,680,3.32216,-0.021644,0.259148,0.940169
778,673,3.32122,-0.0231442,0.259146,0.939292
785,666,3.32011,-0.0247278,0.259588,0.938543
792,659,3.32233,-0.0225648,0.258112,0.937562
799,652,3.32052,-0.0241123,0.259001,0.936404
806,645,3.32234,-0.0225993,0.257782,0.935117
813,638,3.3209,-0.0233481,0.258224,0.934531
820,631,3.32261,-0.021132,0.256469,0.933514
827,624,3.32239,-0.0227495,0.256912,0.932551
834,617,3.32072,-0.0232113,0.257362,0.9309
841,610,3.32158,-0.022852,0.256318,0.930071
848,603,3.32029,-0.0302346,0.256317,0.929002
855,596,3.32199,-0.0222862,0.255275,0.928119
862,589,3.32147,-0.0283022,0.25483,0.926697
869,582,3.32205,-0.0242376,0.253782,0.925056
876,575,3.32106,-0.0246511,0.25378,0.923648
883,568,3.32259,-0.0202024,0.251838,0.922629
890,561,3.32054,-0.0304292,0.252727,0.921099
897,554,3.32236,-0.0261668,0.250788,0.92001
904,547,3.32196,-0.0245579,0.25034,0.918471
911,540,3.32382,-0.0201273,0.248411,0.917476
918,533,3.32142,-0.0305023,0.249299,0.91591
925,526,3.32278,-0.0270492,0.247803,0.914212
932,519,3.32081,-0.0267017,0.248243,0.912914
939,512,3.32301,-0.0231409,0.246307,0.911502
946,505,3.32374,-0.0217254,0.245253,0.909918
953,498,3.32288,-0.0279145,0.244814,0.908429
960,491,3.32359,-0.026503,0.244445,0.905218
967,484,3.32264,-0.0248235,0.243822,0.905091
974,477,3.32304,-0.0234777,0.243128,0.903262
981,470,3.32144,-0.0317616,0.243123,0.901876
988,463,3.32193,-0.0303017,0.242495,0.900078
995,456,3.32396,-0.0227306,0.239688,0.898341
1002,449,3.32218,-0.0250952,0.240209,0.897099
1009,442,3.32287,-0.0216107,0.239048,0.895149
1016,435,3.32101,-0.0321433,0.239479,0.893849
1023,428,3.32287,-0.0244045,0.237111,0.891926
1030,421,3.32476,-0.0207062,0.235182,0.890529
1037,414,3.32211,-0.0311231,0.236033,0.889044
1044,407,3.32312,-0.0285038,0.234959,0.886736
1051,400,3.32461,-0.0229277,0.23303,0.884896
1058,393,3.32261,-0.0322193,0.233452,0.882911
1065,386,3.32303,-0.0287212,0.232376,0.880962
1072,379,3.32438,-0.0259682,0.230877,0.878956
1079,372,3.32462,-0.0224154,0.229792,0.876993
1086,365,3.32326,-0.0316623,0.229786,0.875296
1093,358,3.32436,-0.0259502,0.227851,0.873461
1100,351,3.32415,-0.0253187,0.227189,0.871317
1107,344,3.32264,-0.026558,0.227612,0.869346
1114,337,3.32376,-0.0290669,0.225682,0.867512
1121,330,3.32343,-0.0281984,0.225009,0.865453
1128,323,3.32404,-0.0256049,0.223915,0.863098
1135,316,3.32183,-0.0268647,0.224332,0.861115
1142,309,3.32228,-0.0323103,0.222813,0.859099
1149,302,3.32253,-0.0274432,0.221711,0.856356
1156,295,3.32336,-0.0225025,0.220192,0.853981
1163,288,3.32352,-0.0301713,0.219506,0.851862
1170,281,3.32182,-0.0314765,0.219503,0.850104
1177,274,3.3222,-0.0285052,0.218396,0.847879
1184,267,3.32337,-0.0234989,0.21645,0.845679
1191,260,3.32213,-0.0313054,0.216166,0.843287
1198,253,3.32338,-0.0250502,0.214228,0.840369
1205,246,3.32379,-0.0220329,0.213111,0.838133
1212,239,3.32328,-0.0220887,0.212815,0.835432
1219,232,3.32083,-0.0299523,0.212808,0.833239
1226,225,3.32186,-0.0269556,0.211267,0.831232
1233,218,3.32208,-0.033424,0.210144,0.828684
1240,211,3.32171,-0.0285519,0.208712,0.825913
1247,204,3.32329,-0.0232648,0.207064,0.823773
1254,197,3.32249,-0.0317259,0.206516,0.821459
1261,190,3.32187,-0.0290864,0.20561,0.818813
1268,183,3.32277,-0.0229514,0.204068,0.815515
1275,176,3.32231,-0.0228631,0.203333,0.813136
1282,169,3.32308,-0.0286551,0.201776,0.811113
1289,162,3.32227,-0.0288208,0.201438,0.808403
1296,155,3.32048,-0.02801,0.200981,0.806241
1303,148,3.32007,-0.0281707,0.200691,0.803787
1310,141,3.32092,-0.0327251,0.199125,0.801038
1317,134,3.32087,-0.0282046,0.197556,0.798291
1324,127,3.32075,-0.035187,0.196798,0.795419
1331,120,3.31996,-0.0307906,0.195629,0.792371
1338,113,3.32089,-0.027717,0.194211,0.790329
1345,106,3.32102,-0.0346032,0.192878,0.787962
1352,99,3.32094,-0.0324586,0.1917,0.785138
1359,92,3.32181,-0.0278514,0.19027,0.782384
1366,85,3.32117,-0.0257593,0.18936,0.779482
1373,78,3.32078,-0.0329706,0.18815,0.776847
1380,71,3.32228,-0.0306463,0.18656,0.774522
1387,64,3.32187,-0.0355285,0.185366,0.771479
1394,57,3.32152,-0.035539,0.184562,0.769093
1401,50,3.32081,-0.033496,0.183754,0.76615
1408,43,3.32217,-0.0287224,0.181764,0.763685
1415,36,3.32213,-0.0369291,0.180557,0.760784
1422,29,3.32223,-0.0321878,0.179341,0.757775
1429,22,3.32206,-0.0325946,0.178514,0.755243
1436,15,3.32219,-0.0277923,0.176901,0.752488
1443,8,3.32145,-0.0386585,0.176066,0.749721
1448,3,3.3234,-0.0328312,0.174065,0.747561