File: hust_correlation_analysis/matrices/HUST_1-7_cycle_feature_matrix.csv
cycle_number,rul,voltage,current,capacity,charge_capacity
1,1680,3.32001,-0.00922512,0.31315,1.0204
9,1672,3.30746,-0.0129001,0.319132,1.01281
17,1664,3.30897,-0.0117217,0.317853,1.01153
25,1656,3.30879,-0.0128807,0.317387,1.0114
33,1648,3.3103,-0.0112614,0.316096,1.01003
41,1640,3.31023,-0.0126003,0.316086,1.00931
49,1632,3.30981,-0.0133718,0.316764,1.00889
57,1624,3.31128,-0.0113501,0.314803,1.00803
65,1616,3.31108,-0.0120428,0.314799,1.00767
73,1608,3.31083,-0.0127565,0.314796,1.00729
81,1600,3.31007,-0.0139441,0.314806,1.0067
89,1592,3.312,-0.0113282,0.313523,1.00613
97,1584,3.31206,-0.0120977,0.313526,1.00572
105,1576,3.31112,-0.0132471,0.313993,1.00494
113,1568,3.31063,-0.0139631,0.313987,1.00456
121,1560,3.31198,-0.0115461,0.31317,1.00368
129,1552,3.31193,-0.0120523,0.31317,1.00343
137,1544,3.31215,-0.0126366,0.312714,1.00333
145,1536,3.31149,-0.0133241,0.313159,1.00274
153,1528,3.31046,-0.0139829,0.313626,1.00221
161,1520,3.31219,-0.0114038,0.312355,1.00163
169,1512,3.31286,-0.0119712,0.311894,1.00154
177,1504,3.31223,-0.0126032,0.313039,1.001
185,1496,3.31159,-0.0132154,0.312823,1.00027
193,1488,3.31125,-0.0139546,0.312812,1.00009
201,1480,3.31061,-0.0139867,0.312809,1.00006
209,1472,3.31249,-0.011548,0.311977,0.999141
217,1464,3.31267,-0.0120911,0.311534,0.999124
225,1456,3.31258,-0.0127164,0.31222,0.998794
233,1448,3.31218,-0.0133768,0.312223,0.998263
241,1440,3.31204,-0.0133339,0.311531,0.998458
249,1432,3.31199,-0.0135018,0.311509,0.998313
257,1424,3.31124,-0.0143987,0.312409,0.997369
265,1416,3.31293,-0.0116959,0.310688,0.9971
273,1408,3.3129,-0.0123536,0.310686,0.996746
281,1400,3.31257,-0.0130066,0.310697,0.996437
289,1392,3.31261,-0.013541,0.310696,0.996163
297,1384,3.31221,-0.0135953,0.31069,0.99613
305,1376,3.31243,-0.0140945,0.310234,0.996077
313,1368,3.31367,-0.0115699,0.309424,0.99527
321,1360,3.31373,-0.0122645,0.309416,0.994874
329,1352,3.31341,-0.0129124,0.309418,0.994547
337,1344,3.31321,-0.0134996,0.309424,0.994251
345,1336,3.31254,-0.0142467,0.30988,0.993654
353,1328,3.31474,-0.0110045,0.308141,0.993586
361,1320,3.31407,-0.0121498,0.308612,0.992828
369,1312,3.314,-0.0128715,0.308603,0.992412
377,1304,3.31367,-0.0133184,0.308595,0.992163
385,1296,3.3129,-0.0141121,0.30907,0.9916
393,1288,3.31451,-0.0114765,0.307791,0.991018
401,1280,3.31422,-0.0115473,0.307784,0.99096
409,1272,3.31372,-0.0127673,0.308264,0.990418
417,1264,3.31321,-0.0133686,0.30826,0.989866
425,1256,3.31339,-0.0134868,0.30794,0.98995
433,1248,3.31476,-0.0113956,0.306985,0.98895
441,1240,3.31476,-0.0120533,0.306987,0.988597
449,1232,3.31469,-0.0120473,0.306989,0.988613
457,1224,3.31388,-0.0128022,0.307598,0.988008
465,1216,3.31393,-0.0139373,0.307444,0.987404
473,1208,3.31377,-0.0141322,0.307648,0.987453
481,1200,3.31514,-0.0116466,0.306142,0.986575
489,1192,3.31477,-0.0122304,0.306143,0.98627
497,1184,3.31445,-0.0130527,0.306137,0.985821
505,1176,3.31435,-0.0136488,0.306137,0.985506
513,1168,3.31363,-0.0142729,0.306602,0.985019
521,1160,3.31532,-0.0116906,0.30532,0.984375
529,1152,3.3152,-0.0123356,0.30532,0.984037
537,1144,3.31484,-0.0128498,0.305336,0.98383
545,1136,3.3143,-0.0135071,0.305325,0.983452
553,1128,3.31446,-0.0143113,0.305538,0.982988
561,1120,3.3162,-0.01167,0.304044,0.982426
569,1112,3.31532,-0.0121469,0.305191,0.982013
577,1104,3.31546,-0.0128575,0.304034,0.98177
585,1096,3.31497,-0.0137357,0.304506,0.981131
593,1088,3.3165,-0.0115268,0.303693,0.980161
601,1080,3.31546,-0.0121791,0.304142,0.979596
609,1072,3.31549,-0.0128553,0.303689,0.979463
617,1064,3.31571,-0.0134008,0.303689,0.979176
625,1056,3.31485,-0.0140448,0.303691,0.978832
633,1048,3.31587,-0.0116666,0.303088,0.977899
641,1040,3.31603,-0.0128886,0.302868,0.97724
649,1032,3.31576,-0.0135598,0.302865,0.976886
657,1024,3.31465,-0.0143395,0.303319,0.97627
665,1016,3.3166,-0.0116272,0.302038,0.975706
673,1008,3.31687,-0.0122792,0.301577,0.975545
681,1000,3.31583,-0.0135975,0.302035,0.974652
689,992,3.31497,-0.0143533,0.302483,0.974048
697,984,3.31701,-0.0117507,0.30122,0.97346
705,976,3.31597,-0.0130161,0.30167,0.972572
713,968,3.31613,-0.0136362,0.301206,0.972423
721,960,3.31691,-0.0117158,0.300859,0.971074
729,952,3.31644,-0.0122901,0.300853,0.970772
737,944,3.31632,-0.0136486,0.300851,0.97004
745,936,3.31595,-0.0144472,0.300842,0.969607
753,928,3.31692,-0.0124126,0.300023,0.968486
761,920,3.31654,-0.0130802,0.300021,0.968124
769,912,3.31569,-0.0138535,0.300478,0.965992
777,904,3.31731,-0.0118083,0.299195,0.966574
785,896,3.31723,-0.0130622,0.298577,0.965928
793,888,3.31578,-0.0145855,0.300121,0.964727
801,880,3.31774,-0.011817,0.298371,0.964351
809,872,3.31706,-0.0131855,0.298834,0.963452
817,864,3.31624,-0.013994,0.298822,0.962979
825,856,3.31795,-0.0124581,0.298014,0.961619
833,848,3.3169,-0.0131143,0.298471,0.961072
841,840,3.31622,-0.0140823,0.29915,0.960557
849,832,3.31786,-0.0119834,0.297185,0.958146
857,824,3.3164,-0.0139272,0.298118,0.958251
865,816,3.31825,-0.0112207,0.296944,0.957621
873,808,3.31714,-0.0126122,0.297282,0.956679
881,800,3.31678,-0.0138538,0.297285,0.956038
889,792,3.31773,-0.0118565,0.296468,0.954854
897,784,3.31686,-0.0133484,0.296926,0.953868
905,776,3.31643,-0.0147454,0.296921,0.953128
913,768,3.31739,-0.012695,0.296096,0.951958
921,760,3.31639,-0.0142496,0.296558,0.950934
929,752,3.31781,-0.0120862,0.295263,0.950013
937,744,3.31723,-0.0135506,0.29574,0.94907
945,736,3.31607,-0.0132055,0.295731,0.947988
953,728,3.31746,-0.0180639,0.294438,0.947069
961,720,3.3159,-0.0195567,0.295377,0.945924
969,712,3.3179,-0.0144868,0.293141,0.944366
977,704,3.31661,-0.0160355,0.293602,0.943366
985,696,3.31852,-0.0103527,0.291363,0.940725
993,688,3.317,-0.0118541,0.292314,0.941002
1001,680,3.31823,-0.0157373,0.291012,0.939306
1009,672,3.31781,-0.0152911,0.290544,0.938468
1017,664,3.31887,-0.0115023,0.289251,0.937126
1025,656,3.31784,-0.0118155,0.289253,0.935699
1033,648,3.31792,-0.0175494,0.288889,0.933986
1041,640,3.31699,-0.0171678,0.288891,0.932936
1049,632,3.31834,-0.0139676,0.287605,0.931295
1057,624,3.31733,-0.0135959,0.287593,0.930195
1065,616,3.31825,-0.0105537,0.286297,0.928441
1073,608,3.31733,-0.0177746,0.286306,0.927165
1081,600,3.31851,-0.0146392,0.285008,0.925454
1089,592,3.31775,-0.0143235,0.284538,0.924516
1097,584,3.31827,-0.0113231,0.28371,0.922569
1105,576,3.31629,-0.0206259,0.284627,0.92109
1113,568,3.31753,-0.0156326,0.282872,0.919264
1121,560,3.31863,-0.0124836,0.281568,0.917508
1129,552,3.31765,-0.0198662,0.281585,0.916199
1137,544,3.3182,-0.0167374,0.280745,0.914279
1145,536,3.3168,-0.017109,0.280744,0.91284
1153,528,3.31782,-0.0155721,0.279907,0.911365
1161,520,3.31859,-0.0123752,0.278618,0.909683
1169,512,3.31618,-0.0208355,0.279529,0.907376
1177,504,3.31735,-0.0157709,0.277779,0.90559
1185,496,3.31824,-0.0124818,0.276484,0.903931
1193,488,3.31634,-0.0208033,0.276939,0.90196
1201,480,3.31724,-0.0175756,0.275644,0.900257
1209,472,3.31795,-0.0150749,0.274809,0.898017
1217,464,3.31827,-0.0100045,0.273518,0.895959
1225,456,3.31619,-0.0203263,0.274428,0.894126
1233,448,3.31721,-0.0170236,0.273132,0.892442
1241,440,3.3174,-0.0145,0.272301,0.890225
1249,432,3.31573,-0.0137244,0.272297,0.888066
1257,424,3.31616,-0.0186,0.271456,0.885811
1265,416,3.31696,-0.0152804,0.270161,0.884133
1273,408,3.31708,-0.0126811,0.269324,0.881924
1281,400,3.31713,-0.0175618,0.268481,0.879679
1289,392,3.31564,-0.0168717,0.268473,0.877464
1297,384,3.31551,-0.0162481,0.268084,0.875603
1305,376,3.31618,-0.0117219,0.266787,0.872952
1313,368,3.31687,-0.0166716,0.265485,0.870886
1321,360,3.31712,-0.012296,0.264195,0.868436
1329,352,3.31488,-0.0140795,0.265229,0.86595
1337,344,3.31538,-0.018914,0.263801,0.863969
1345,336,3.3152,-0.0146556,0.263614,0.861215
1353,328,3.31578,-0.0196324,0.261645,0.859149
1361,320,3.31553,-0.0177722,0.261266,0.856401
1369,312,3.31595,-0.0131972,0.25996,0.85397
1377,304,3.31578,-0.0184945,0.259104,0.85158
1385,296,3.3136,-0.0202832,0.259552,0.849297
1393,288,3.31395,-0.0175404,0.258719,0.847154
1401,280,3.3144,-0.0137373,0.257414,0.844345
1409,272,3.31384,-0.0208309,0.257023,0.842272
1417,264,3.31421,-0.0168907,0.256173,0.838068
1425,256,3.31454,-0.0129246,0.254871,0.836606
1433,248,3.31431,-0.0200764,0.254471,0.834534
1441,240,3.31412,-0.0163625,0.253621,0.831475
1449,232,3.31468,-0.0134281,0.252318,0.829532
1457,224,3.31436,-0.0194765,0.251957,0.826741
1465,216,3.31419,-0.0174777,0.25172,0.824149
1473,208,3.31485,-0.0127456,0.249757,0.821704
1481,200,3.31477,-0.0187989,0.248905,0.819136
1489,192,3.31171,-0.0208859,0.249815,0.816575
1497,184,3.31284,-0.0159701,0.248047,0.814386
1505,176,3.31224,-0.0222086,0.247643,0.811552
1513,168,3.31217,-0.0181162,0.246349,0.808855
1521,160,3.31257,-0.0154462,0.245469,0.806478
1529,152,3.31253,-0.0216067,0.244608,0.803891
1537,144,3.31266,-0.0189248,0.243746,0.801587
1545,136,3.31323,-0.0146985,0.242438,0.798882
1553,128,3.31278,-0.0128142,0.242029,0.79602
1561,120,3.31307,-0.0182346,0.240905,0.793975
1569,112,3.31359,-0.0140655,0.239394,0.791211
1577,104,3.31387,-0.0111701,0.23854,0.789002
1585,96,3.31292,-0.0197055,0.238584,0.786354
1593,88,3.31075,-0.0196128,0.238574,0.783846
1601,80,3.3109,-0.0146371,0.237258,0.781404
1609,72,3.31062,-0.0231769,0.23685,0.778997
1617,64,3.31089,-0.0204278,0.235982,0.776688
1625,56,3.31169,-0.014005,0.234203,0.773731
1633,48,3.31179,-0.0216225,0.233335,0.771928
1641,40,3.312,-0.0166013,0.232016,0.769456
1649,32,3.31199,-0.0124831,0.231151,0.766427
1657,24,3.31217,-0.0203034,0.23028,0.764576
1665,16,3.31017,-0.0201764,0.230275,0.762083
1673,8,3.31063,-0.0150457,0.229593,0.759641
1678,3,3.31093,-0.0134054,0.228538,0.75793