File: hust_correlation_analysis/matrices/HUST_6-4_cycle_feature_matrix.csv
cycle_number,rul,voltage,current,capacity,charge_capacity
1,1719,3.32354,-0.0224097,0.275359,0.996752
9,1711,3.31221,-0.025791,0.279195,0.990387
17,1703,3.31353,-0.0250582,0.277713,0.988878
25,1695,3.315,-0.0229932,0.276231,0.987951
33,1687,3.31393,-0.0243085,0.276703,0.987341
41,1679,3.31359,-0.0258686,0.276202,0.986874
49,1671,3.31479,-0.0230455,0.27516,0.985725
57,1663,3.31424,-0.0244355,0.275158,0.985121
65,1655,3.31385,-0.0259652,0.275604,0.984215
73,1647,3.31324,-0.0266265,0.275599,0.983914
81,1639,3.31523,-0.0237837,0.274118,0.983304
89,1631,3.31553,-0.0253023,0.274406,0.982701
97,1623,3.31498,-0.0258714,0.274125,0.982443
105,1615,3.3138,-0.0267661,0.274566,0.981775
113,1607,3.31619,-0.0239691,0.273095,0.981191
121,1599,3.31611,-0.0253082,0.273089,0.980416
129,1591,3.31531,-0.0253423,0.273088,0.980592
137,1583,3.31497,-0.0260345,0.273081,0.98027
145,1575,3.31724,-0.0239289,0.271615,0.979388
153,1567,3.31712,-0.0238857,0.271604,0.979377
161,1559,3.31589,-0.0246746,0.272144,0.978772
169,1551,3.31593,-0.0254734,0.272052,0.97845
177,1543,3.31496,-0.0262102,0.272504,0.9779
185,1535,3.3148,-0.0269773,0.272503,0.977563
193,1527,3.31718,-0.0240886,0.271116,0.976964
201,1519,3.3175,-0.024752,0.27102,0.976689
209,1511,3.31682,-0.0255169,0.27102,0.97636
217,1503,3.31593,-0.0263265,0.271465,0.97575
225,1495,3.31661,-0.0262164,0.271016,0.976048
233,1487,3.31538,-0.0270376,0.271452,0.975397
241,1479,3.31738,-0.0241486,0.269972,0.974831
249,1471,3.31741,-0.0248339,0.269972,0.974534
257,1463,3.31692,-0.0255624,0.27042,0.973976
265,1455,3.31622,-0.0255904,0.270418,0.973956
273,1447,3.31622,-0.0263244,0.270502,0.973592
281,1439,3.31521,-0.02611,0.270827,0.973352
289,1431,3.31489,-0.0270042,0.271271,0.972697
297,1423,3.31695,-0.02348,0.269346,0.972643
305,1415,3.31658,-0.0242671,0.269345,0.972292
313,1407,3.31646,-0.0250287,0.269352,0.972261
321,1399,3.31699,-0.0256042,0.268906,0.97203
329,1391,3.31592,-0.0263416,0.269348,0.971448
337,1383,3.31498,-0.0273108,0.269797,0.970779
345,1375,3.31788,-0.0243255,0.267871,0.970506
353,1367,3.31736,-0.0242135,0.267863,0.970512
361,1359,3.31749,-0.0249532,0.267857,0.970182
369,1351,3.31705,-0.0257103,0.267868,0.969896
377,1343,3.31739,-0.0264235,0.267961,0.969583
385,1335,3.31721,-0.0272456,0.267862,0.969219
393,1327,3.31794,-0.024356,0.266814,0.96835
401,1319,3.31838,-0.0251366,0.266828,0.968062
409,1311,3.31802,-0.0258339,0.266821,0.967738
417,1303,3.31705,-0.0266507,0.267258,0.967113
425,1295,3.31689,-0.0273468,0.267271,0.966839
433,1287,3.31889,-0.0244677,0.265778,0.966233
441,1279,3.31893,-0.0252461,0.265776,0.965886
449,1271,3.31859,-0.0258083,0.265773,0.965635
457,1263,3.31835,-0.0267032,0.265781,0.96529
465,1255,3.31813,-0.0273844,0.26578,0.964987
473,1247,3.31899,-0.0243895,0.264723,0.964139
481,1239,3.31906,-0.0253254,0.264725,0.963728
489,1231,3.31947,-0.0260517,0.264734,0.96346
497,1223,3.31843,-0.0275116,0.265181,0.962579
505,1215,3.32041,-0.024604,0.263671,0.961922
513,1207,3.31971,-0.0254331,0.263685,0.961607
521,1199,3.31868,-0.0262664,0.264613,0.960997
529,1191,3.31903,-0.0270022,0.264109,0.960609
537,1183,3.31833,-0.0276063,0.264106,0.96035
545,1175,3.32047,-0.024678,0.262612,0.959738
553,1167,3.32018,-0.0254856,0.26261,0.959379
561,1159,3.31904,-0.0262739,0.263048,0.958785
569,1151,3.31813,-0.0270426,0.263493,0.958193
577,1143,3.32079,-0.0240706,0.261557,0.957882
585,1135,3.32002,-0.0255897,0.261994,0.956947
593,1127,3.31971,-0.0263897,0.261991,0.956601
601,1119,3.31922,-0.0270947,0.262,0.956335
609,1111,3.31888,-0.0278227,0.261996,0.95601
617,1103,3.32044,-0.0249253,0.26093,0.955088
625,1095,3.32051,-0.0256301,0.260481,0.955011
633,1087,3.31992,-0.0272304,0.260939,0.954135
641,1079,3.31891,-0.0280368,0.261372,0.953495
649,1071,3.32084,-0.0249625,0.259864,0.952919
657,1063,3.32107,-0.0265283,0.260357,0.952276
665,1055,3.3199,-0.0274437,0.260324,0.951667
673,1047,3.32107,-0.0251866,0.259254,0.950459
681,1039,3.3214,-0.0258211,0.25881,0.950438
689,1031,3.32117,-0.0266582,0.258815,0.95009
697,1023,3.3196,-0.0281954,0.259258,0.949174
705,1015,3.321,-0.0252796,0.258193,0.948278
713,1007,3.32116,-0.026749,0.258187,0.947634
721,999,3.32035,-0.0284288,0.258634,0.946677
729,991,3.32099,-0.0253598,0.258045,0.94582
737,983,3.32113,-0.0261984,0.257554,0.945449
745,975,3.32053,-0.0276689,0.257552,0.944802
753,967,3.32139,-0.0254952,0.25648,0.94357
761,959,3.32172,-0.0261969,0.256475,0.943258
769,951,3.32127,-0.0277412,0.256728,0.942584
777,943,3.32184,-0.024736,0.255402,0.941711
785,935,3.32211,-0.0263962,0.25541,0.941025
793,927,3.32059,-0.0278994,0.255848,0.940114
801,919,3.32186,-0.0257147,0.254775,0.938881
809,911,3.32162,-0.0272843,0.25523,0.937995
817,903,3.32081,-0.0289596,0.255227,0.93727
825,895,3.32164,-0.0267704,0.254596,0.935781
833,887,3.32159,-0.0274357,0.254143,0.935737
841,879,3.31916,-0.029057,0.255026,0.934494
849,871,3.32159,-0.0267215,0.253502,0.933579
857,863,3.32095,-0.0282534,0.253497,0.932911
865,855,3.32285,-0.0259465,0.252412,0.931503
873,847,3.32179,-0.0275767,0.252414,0.931013
881,839,3.32043,-0.0293882,0.253324,0.929786
889,831,3.32154,-0.0270568,0.251785,0.928826
897,823,3.32128,-0.0285742,0.252224,0.927901
905,815,3.32175,-0.0263597,0.251141,0.926904
913,807,3.32226,-0.0278968,0.251139,0.926017
921,799,3.32088,-0.0286652,0.251128,0.925645
929,791,3.32207,-0.0265705,0.250044,0.924349
937,783,3.32148,-0.0288857,0.250991,0.923161
945,775,3.32231,-0.0265907,0.249402,0.921891
953,767,3.32201,-0.0281319,0.249394,0.921217
961,759,3.32337,-0.0239411,0.247863,0.919866
969,751,3.3223,-0.0343542,0.248307,0.918605
977,743,3.32135,-0.0339708,0.248312,0.917566
985,735,3.32182,-0.0316426,0.247212,0.916334
993,727,3.32187,-0.029914,0.246761,0.914884
1001,719,3.32292,-0.0255919,0.245215,0.914759
1009,711,3.32182,-0.0292644,0.2459,0.9115
1017,703,3.32347,-0.0296955,0.243661,0.910765
1025,695,3.32214,-0.0312229,0.243654,0.910118
1033,687,3.32366,-0.0276274,0.242103,0.908435
1041,679,3.32238,-0.0353855,0.2421,0.907354
1049,671,3.32239,-0.033898,0.241432,0.905523
1057,663,3.32144,-0.0354055,0.241428,0.90489
1065,655,3.32442,-0.0297945,0.239442,0.903097
1073,647,3.32151,-0.0295267,0.239873,0.901719
1081,639,3.32319,-0.027866,0.238319,0.900441
1089,631,3.32309,-0.0356745,0.237892,0.899657
1097,623,3.32365,-0.0320187,0.236767,0.89773
1105,615,3.32148,-0.0325161,0.237207,0.896075
1113,607,3.32394,-0.0267003,0.234772,0.894524
1121,599,3.32458,-0.0334627,0.234099,0.892712
1129,591,3.32268,-0.0351903,0.234533,0.891765
1137,583,3.32451,-0.0314436,0.232539,0.890362
1145,575,3.32299,-0.0297771,0.232531,0.888585
1153,567,3.32394,-0.0261605,0.23141,0.886638
1161,559,3.32202,-0.0370185,0.231841,0.88536
1169,551,3.32352,-0.0332605,0.230283,0.883715
1177,543,3.32477,-0.0296792,0.228944,0.881999
1185,535,3.32381,-0.0280117,0.228724,0.880241
1193,527,3.32391,-0.0347694,0.227658,0.878698
1201,519,3.32481,-0.0310895,0.226026,0.876974
1209,511,3.3227,-0.0337021,0.226883,0.875443
1217,503,3.32508,-0.0265847,0.224464,0.873197
1225,495,3.32308,-0.0354021,0.224888,0.871552
1233,487,3.3236,-0.0275378,0.224167,0.870089
1241,479,3.32414,-0.0300914,0.222591,0.868005
1249,471,3.32256,-0.0306184,0.222594,0.866597
1257,463,3.32327,-0.0311353,0.221873,0.865173
1265,455,3.32472,-0.033603,0.220167,0.863393
1273,447,3.32334,-0.0328272,0.219864,0.861233
1281,439,3.32386,-0.0291321,0.218715,0.859285
1289,431,3.32466,-0.0263451,0.217572,0.856996
1297,423,3.32279,-0.0374216,0.217984,0.855749
1305,415,3.32254,-0.034661,0.21725,0.853171
1313,407,3.32344,-0.030797,0.215665,0.85149
1321,399,3.32188,-0.0300199,0.215667,0.849375
1329,391,3.32258,-0.0283783,0.214498,0.847804
1337,383,3.32286,-0.0363903,0.213751,0.845627
1345,375,3.3251,-0.0300662,0.211317,0.844142
1353,367,3.32248,-0.0316035,0.212158,0.841852
1361,359,3.32306,-0.0276237,0.210559,0.840184
1369,351,3.32341,-0.0357489,0.209807,0.838032
1377,343,3.32099,-0.035002,0.210508,0.83561
1385,335,3.32148,-0.0321068,0.209046,0.833306
1393,327,3.32234,-0.0370332,0.20744,0.831627
1401,319,3.3232,-0.0339815,0.206253,0.829347
1409,311,3.32135,-0.033078,0.206245,0.827236
1417,303,3.32215,-0.0298912,0.205059,0.825018
1425,295,3.32304,-0.0350978,0.203453,0.82327
1433,287,3.32374,-0.0321552,0.202256,0.820941
1441,279,3.32182,-0.0335596,0.202664,0.818961
1449,271,3.32175,-0.0396696,0.201463,0.816641
1457,263,3.32204,-0.0366185,0.20026,0.814361
1465,255,3.322,-0.0350153,0.199464,0.812502
1473,247,3.32375,-0.029391,0.197426,0.810396
1481,239,3.32138,-0.0399408,0.19783,0.808442
1489,231,3.32206,-0.0368857,0.196608,0.806121
1497,223,3.322425,-0.0337712,0.195393,0.803835
1505,215,3.32201,-0.0308094,0.194574,0.8012
1513,207,3.3206,-0.0414816,0.194566,0.79951
1521,199,3.3214,-0.0384077,0.193339,0.797212
1529,191,3.32101,-0.0378148,0.192527,0.795033
1537,183,3.32269,-0.0297283,0.190473,0.792503
1545,175,3.32274,-0.0359883,0.189222,0.790176
1553,167,3.32077,-0.0412341,0.189622,0.789356
1561,159,3.32066,-0.034237,0.18864,0.785906
1569,151,3.32098,-0.0407075,0.187136,0.783609
1577,143,3.32205,-0.039919,0.185877,0.781702
1585,135,3.32225,-0.0366207,0.184615,0.779414
1593,127,3.32035,-0.0356974,0.18461,0.77729
1601,119,3.32139,-0.0323449,0.182947,0.775304
1609,111,3.32183,-0.0388399,0.181689,0.773014
1617,103,3.32292,-0.0380037,0.180416,0.771127
1625,95,3.32272,-0.0323641,0.179141,0.768375
1633,87,3.32133,-0.0337724,0.179134,0.76671
1641,79,3.32174,-0.0427117,0.177866,0.764898
1649,71,3.32221,-0.0371316,0.176581,0.762116
1657,63,3.32319,-0.0371914,0.175292,0.759941
1665,55,3.32416,-0.031413,0.173608,0.757487
1673,47,3.32486,-0.0404609,0.17231,0.75564
1681,39,3.32595,-0.0345201,0.170622,0.753226
1689,31,3.32292,-0.0372404,0.171005,0.750895
1697,23,3.32433,-0.0438095,0.16931,0.748915
1705,15,3.32414,-0.0431489,0.168385,0.746716
1713,7,3.32558,-0.0355422,0.1663,0.74384
1717,3,3.32347,-0.04033,0.167503,0.74304