File: hust_correlation_analysis/matrices/HUST_2-8_cycle_feature_matrix.csv
cycle_number,rul,voltage,current,capacity,charge_capacity
1,1483,3.31842,-0.0123935,0.347125,1.02304
8,1476,3.30186,-0.0154834,0.353197,1.01642
15,1469,3.30342,-0.0136822,0.352013,1.01548
22,1462,3.30324,-0.0155635,0.352012,1.01442
29,1455,3.30508,-0.0130625,0.350335,1.01404
36,1448,3.30503,-0.0143455,0.350316,1.01327
43,1441,3.30503,-0.0149377,0.349818,1.01309
50,1434,3.30647,-0.0125579,0.348641,1.01246
57,1427,3.3064,-0.0137172,0.348628,1.01202
64,1420,3.30573,-0.0144149,0.349098,1.01114
71,1413,3.30576,-0.0150193,0.3486,1.01094
78,1406,3.30711,-0.0130905,0.347937,1.00996
85,1399,3.30682,-0.01376,0.347926,1.00956
92,1392,3.3066,-0.0145219,0.347913,1.00907
99,1385,3.30657,-0.0149999,0.34793,1.00886
106,1378,3.30604,-0.0156283,0.347926,1.00848
113,1371,3.30786,-0.0131854,0.346751,1.00788
120,1364,3.30714,-0.0138967,0.347234,1.00729
127,1357,3.3073,-0.0144519,0.347249,1.00702
134,1350,3.30678,-0.0150151,0.347238,1.00667
141,1343,3.30676,-0.0156697,0.347232,1.00627
148,1336,3.30842,-0.0131447,0.346812,1.00581
155,1329,3.30781,-0.0132327,0.346658,1.00558
162,1322,3.30752,-0.0138537,0.346574,1.00523
169,1315,3.30677,-0.0145199,0.347078,1.00469
176,1308,3.30677,-0.015122,0.347086,1.00438
183,1301,3.30663,-0.0156908,0.347085,1.00405
190,1294,3.30828,-0.0132162,0.345916,1.00347
197,1287,3.308,-0.0132551,0.346005,1.00346
204,1280,3.30793,-0.0138748,0.345909,1.00308
211,1273,3.30743,-0.0145642,0.346398,1.00251
218,1266,3.30754,-0.0151962,0.3464,1.00241
225,1259,3.30692,-0.0151742,0.3464,1.00217
232,1252,3.30678,-0.0157477,0.34638,1.00179
239,1245,3.30639,-0.0174797,0.346839,1.00179
246,1238,3.30617,-0.0174662,0.346805,1.00169
253,1231,3.30779,-0.0150196,0.345659,1.00117
260,1224,3.30787,-0.0155944,0.345636,1.0008
267,1217,3.30765,-0.0162188,0.345649,1.00046
274,1210,3.30742,-0.0168546,0.345666,1.00015
281,1203,3.30716,-0.0168527,0.345649,1.00012
288,1196,3.30699,-0.0174372,0.345631,0.999739
295,1189,3.3089,-0.0149539,0.3445,0.99925
302,1182,3.30884,-0.0155729,0.344489,0.998868
309,1175,3.3082,-0.015537,0.344463,0.998829
316,1168,3.30778,-0.0163428,0.344984,0.998269
323,1161,3.30784,-0.0168735,0.344986,0.997981
330,1154,3.30785,-0.017539,0.344984,0.997579
337,1147,3.3076,-0.0174295,0.344484,0.9978
344,1140,3.30875,-0.0134391,0.34383,0.996717
351,1133,3.30896,-0.0139768,0.34334,0.996569
358,1126,3.30841,-0.0162971,0.344305,0.996114
365,1119,3.30843,-0.0152808,0.343825,0.995647
372,1112,3.30747,-0.0159115,0.344326,0.995132
379,1105,3.30928,-0.0133821,0.343155,0.994558
386,1098,3.30902,-0.0134623,0.343148,0.994507
393,1091,3.30916,-0.0140161,0.34325,0.994244
400,1084,3.30871,-0.0145928,0.343166,0.993916
407,1077,3.30808,-0.0153231,0.343645,0.99328
414,1070,3.30732,-0.015994,0.344152,0.992772
421,1063,3.30914,-0.0134565,0.342995,0.992235
428,1056,3.30905,-0.0140544,0.342992,0.991874
435,1049,3.30874,-0.0146352,0.342979,0.991522
442,1042,3.30821,-0.015394,0.343493,0.990976
449,1035,3.30784,-0.0159701,0.343478,0.990591
456,1028,3.30952,-0.013462,0.342293,0.989976
463,1021,3.30942,-0.0141644,0.34231,0.989599
470,1014,3.30864,-0.0148085,0.342792,0.989056
477,1007,3.30828,-0.0154632,0.342699,0.988645
484,1000,3.30752,-0.0161513,0.343271,0.988056
491,993,3.30924,-0.013611,0.342119,0.987534
498,986,3.30896,-0.0142001,0.342596,0.987196
505,979,3.30878,-0.0148163,0.342102,0.986821
512,972,3.30841,-0.0154309,0.342114,0.98649
519,965,3.30983,-0.0129855,0.341939,0.985732
526,958,3.30953,-0.0135846,0.341428,0.985332
533,951,3.30924,-0.014236,0.34142,0.984927
540,944,3.3083,-0.015533,0.341938,0.984073
547,937,3.30825,-0.0161352,0.341938,0.983732
554,930,3.30966,-0.0136227,0.340833,0.983093
561,923,3.30892,-0.0143569,0.341263,0.982792
568,916,3.30818,-0.0149538,0.341784,0.982351
575,909,3.30832,-0.0161822,0.341784,0.981397
582,902,3.30923,-0.0137231,0.341111,0.980582
589,895,3.30898,-0.0143546,0.34113,0.980283
596,888,3.30842,-0.0156925,0.341633,0.97918
603,881,3.30803,-0.0162212,0.341639,0.979092
610,874,3.30922,-0.0136805,0.34046,0.978471
617,867,3.30933,-0.0143395,0.340467,0.978109
624,860,3.30834,-0.0150665,0.34096,0.977512
631,853,3.30708,-0.0163715,0.341941,0.97658
638,846,3.30994,-0.0137627,0.339778,0.976183
645,839,3.30976,-0.0143954,0.339858,0.975834
652,832,3.30875,-0.0157434,0.340273,0.974872
659,825,3.30825,-0.0163705,0.34026,0.974499
666,818,3.30987,-0.0138582,0.3391,0.973902
673,811,3.3094,-0.0151294,0.339603,0.973017
680,804,3.3085,-0.0158449,0.340204,0.972426
687,797,3.30972,-0.013906,0.339433,0.971313
694,790,3.30904,-0.0152267,0.339948,0.970422
701,783,3.3085,-0.0158633,0.340685,0.970076
708,776,3.30947,-0.013982,0.339276,0.969147
715,769,3.30939,-0.0145709,0.33875,0.968672
722,762,3.30833,-0.01591,0.339247,0.96772
729,755,3.30878,-0.0139777,0.339102,0.966451
736,748,3.30918,-0.0146642,0.338587,0.966219
743,741,3.30831,-0.0160176,0.339095,0.965295
750,734,3.30958,-0.0140778,0.338437,0.964179
757,727,3.30878,-0.0154264,0.338936,0.963224
764,720,3.30797,-0.0160103,0.33893,0.962874
771,713,3.30881,-0.014157,0.338256,0.961658
778,706,3.30849,-0.0154053,0.338252,0.960952
785,699,3.30734,-0.0168444,0.338744,0.959913
792,692,3.30959,-0.014877,0.337569,0.958962
799,685,3.30808,-0.0163014,0.338618,0.957895
806,678,3.30938,-0.0135742,0.337408,0.957263
813,671,3.30957,-0.0149336,0.336887,0.956635
820,664,3.30831,-0.0162811,0.33793,0.955604
827,657,3.30993,-0.0142948,0.336758,0.954648
834,650,3.30879,-0.0156285,0.337264,0.953696
841,643,3.30773,-0.0170119,0.337771,0.952738
848,636,3.30903,-0.0150301,0.337125,0.951638
855,629,3.3081,-0.0164627,0.337646,0.950686
862,622,3.30885,-0.0144542,0.33697,0.949494
869,615,3.30779,-0.015773,0.337492,0.9486
876,608,3.3074,-0.0171784,0.3375,0.94785
883,601,3.30808,-0.0151948,0.336846,0.94669
890,594,3.3066,-0.0165894,0.337345,0.945691
897,587,3.3086,-0.0145871,0.336145,0.944674
904,580,3.30744,-0.0159988,0.336682,0.943758
911,573,3.30879,-0.0146277,0.336024,0.942239
918,566,3.30807,-0.0159919,0.336016,0.941458
925,559,3.30859,-0.0140698,0.335888,0.940093
932,552,3.30779,-0.0160109,0.336431,0.938892
939,545,3.30639,-0.0174602,0.337433,0.937889
946,538,3.30773,-0.015383,0.335752,0.936899
953,531,3.30682,-0.0169443,0.336277,0.935863
960,524,3.30812,-0.0154744,0.335634,0.934419
967,517,3.30668,-0.0169515,0.336149,0.933394
974,510,3.30678,-0.0156882,0.336023,0.931597
981,503,3.30562,-0.017043,0.336551,0.93067
988,496,3.30658,-0.0157287,0.33591,0.929129
995,489,3.30579,-0.0178468,0.336457,0.927831
1002,482,3.30668,-0.0164857,0.335811,0.926286
1009,475,3.307,-0.015107,0.335713,0.924594
1016,468,3.30534,-0.0165622,0.336257,0.923638
1023,461,3.3052,-0.0152707,0.33614,0.921817
1030,454,3.30428,-0.017435,0.336679,0.920449
1037,447,3.30526,-0.0159596,0.336057,0.919017
1044,440,3.30606,-0.0146119,0.335467,0.917399
1051,433,3.30472,-0.0168092,0.33593,0.915979
1058,426,3.30557,-0.0153808,0.335275,0.914388
1065,419,3.30349,-0.0184371,0.336381,0.912412
1072,412,3.30432,-0.0170033,0.335735,0.909479
1079,405,3.30502,-0.0156331,0.335581,0.909213
1086,398,3.30587,-0.014904,0.334494,0.907229
1093,391,3.30359,-0.0161845,0.335566,0.905
1100,384,3.30357,-0.0228493,0.335438,0.902901
1107,377,3.30469,-0.0194204,0.333721,0.901447
1114,370,3.30219,-0.0206872,0.33484,0.899194
1121,363,3.3024,-0.0200547,0.335277,0.897034
1128,356,3.30185,-0.0224521,0.33587,0.895415
1135,349,3.30341,-0.0141822,0.332945,0.893126
1142,342,3.30303,-0.015331,0.333507,0.89105
1149,335,3.30178,-0.0182982,0.331746,0.889023
1156,328,3.30064,-0.0215604,0.333402,0.886788
1163,321,3.302,-0.0157731,0.331053,0.884251
1170,314,3.3041,-0.0204994,0.327039,0.882178
1177,307,3.30426,-0.0179265,0.326408,0.87994
1184,300,3.30313,-0.0200348,0.328037,0.877337
1191,293,3.29953,-0.0175288,0.330321,0.87497
1198,286,3.30018,-0.0206949,0.328546,0.872825
1205,279,3.30115,-0.0237315,0.326774,0.870739
1212,272,3.30088,-0.0218875,0.329036,0.868278
1219,265,3.30073,-0.0212636,0.328999,0.866063
1226,258,3.30372,-0.0227134,0.320877,0.863394
1233,251,3.30319,-0.0210521,0.320865,0.860494
1240,244,3.30426,-0.0163503,0.319119,0.85841
1247,237,3.30382,-0.0144636,0.319053,0.855633
1254,230,3.30342,-0.0196389,0.318416,0.853357
1261,223,3.30388,-0.0157445,0.317975,0.850658
1268,216,3.30114,-0.0170003,0.317789,0.848628
1275,209,3.30195,-0.0208318,0.316025,0.846103
1282,202,3.30203,-0.0248213,0.314837,0.84363
1289,195,3.30238,-0.0188857,0.313079,0.840572
1296,188,3.30253,-0.0162754,0.31245,0.838304
1303,181,3.30247,-0.0162708,0.312394,0.835844
1310,174,3.30155,-0.0223388,0.312328,0.833024
1317,167,3.30235,-0.0156084,0.310003,0.830711
1324,160,3.302,-0.0215903,0.309365,0.828082
1331,153,3.30225,-0.0176199,0.30818,0.825615
1338,146,3.30222,-0.0236006,0.308306,0.822821
1345,139,3.30248,-0.0169688,0.305816,0.820288
1352,132,3.3024,-0.0149782,0.305278,0.81766
1359,125,3.30237,-0.0190262,0.304023,0.814929
1366,118,3.30255,-0.0150577,0.302831,0.812211
1373,111,3.30285,-0.0190654,0.301654,0.809525
1380,104,3.30266,-0.0231331,0.300474,0.806801
1387,97,3.30223,-0.0203237,0.299845,0.804575
1394,90,3.30282,-0.0163465,0.298685,0.801869
1401,83,3.30277,-0.0225384,0.298083,0.799291
1408,76,3.29931,-0.0246762,0.299175,0.796676
1415,69,3.29989,-0.0196065,0.297443,0.794584
1422,62,3.29988,-0.0238075,0.296272,0.791837
1429,55,3.29992,-0.0197295,0.295114,0.789138
1436,48,3.29998,-0.0218135,0.293401,0.786293
1443,41,3.29994,-0.0169158,0.292232,0.783933
1450,34,3.30008,-0.0229822,0.291066,0.781581
1457,27,3.29947,-0.0201632,0.290461,0.777843
1464,20,3.2979,-0.0224746,0.291497,0.776822
1471,13,3.29878,-0.0154818,0.289225,0.774455
1478,6,3.29792,-0.0146708,0.289154,0.77236
1481,3,3.29655,-0.0226745,0.289148,0.771283