File: hust_correlation_analysis/matrices/HUST_8-8_cycle_feature_matrix.csv
cycle_number,rul,voltage,current,capacity,charge_capacity
1,1681,3.31482,0.0166921,0.271129,1.03772
9,1673,3.30598,-0.0188332,0.280868,1.01671
17,1665,3.3097,-0.0178199,0.278316,1.02397
25,1657,3.31033,-0.0187231,0.27728,1.02674
33,1649,3.3127,-0.0169685,0.275316,1.02858
41,1641,3.31155,-0.0199831,0.275873,1.02949
49,1633,3.31232,-0.0192502,0.275085,1.03055
57,1625,3.31327,-0.0175169,0.273441,1.02932
65,1617,3.31426,-0.0174588,0.273362,1.02954
73,1609,3.31342,-0.018704,0.273364,1.02888
81,1601,3.31494,-0.0174297,0.271938,1.02767
89,1593,3.31498,-0.0180245,0.272286,1.02733
97,1585,3.31477,-0.0185999,0.272028,1.02702
105,1577,3.31592,-0.0168974,0.271092,1.02587
113,1569,3.31555,-0.017465,0.271084,1.02553
121,1561,3.31532,-0.0187242,0.271461,1.02465
129,1553,3.31595,-0.0169551,0.270896,1.02348
137,1545,3.31609,-0.0174692,0.270509,1.0232
145,1537,3.31518,-0.0181559,0.270577,1.02261
153,1529,3.315,-0.0194605,0.271291,1.02175
161,1521,3.31572,-0.0170474,0.270338,1.02092
169,1513,3.31567,-0.0175873,0.270336,1.02064
177,1505,3.31445,-0.0190789,0.271373,1.01944
185,1497,3.31453,-0.0195114,0.271114,1.01921
193,1489,3.31609,-0.0170717,0.269781,1.01861
201,1481,3.31461,-0.0184115,0.270553,1.01745
209,1473,3.315,-0.0190609,0.270553,1.01711
217,1465,3.3139,-0.0197352,0.270933,1.01652
225,1457,3.3154,-0.0172182,0.269848,1.01597
233,1449,3.31514,-0.0178354,0.270069,1.01541
241,1441,3.31369,-0.0185023,0.270742,1.01458
249,1433,3.31304,-0.0180906,0.271127,1.01455
257,1425,3.31313,-0.0192866,0.271126,1.01392
265,1417,3.31213,-0.019905,0.271511,1.01337
273,1409,3.31423,-0.018003,0.269777,1.01267
281,1401,3.31402,-0.019273,0.270172,1.01182
289,1393,3.31318,-0.0191849,0.270161,1.01183
297,1385,3.31436,-0.0174393,0.269218,1.01066
305,1377,3.31449,-0.0180488,0.269214,1.01035
313,1369,3.31379,-0.0187323,0.269593,1.00974
321,1361,3.31325,-0.0193932,0.269601,1.00941
329,1353,3.31474,-0.0174681,0.268643,1.0083
337,1345,3.31457,-0.0181789,0.269286,1.0077
345,1337,3.31392,-0.0187296,0.269038,1.00742
353,1329,3.31316,-0.0195057,0.269432,1.00682
361,1321,3.31292,-0.0200951,0.269679,1.00651
369,1313,3.31416,-0.0176431,0.268223,1.00565
377,1305,3.31444,-0.0181504,0.268474,1.0054
385,1297,3.3135,-0.019471,0.268859,1.00448
393,1289,3.31303,-0.0202857,0.269265,1.00387
401,1281,3.31415,-0.0176496,0.268301,1.0031
409,1273,3.31402,-0.0183367,0.268687,1.00275
417,1265,3.31377,-0.0189,0.268299,1.00244
425,1257,3.31355,-0.0196918,0.268706,1.00184
433,1249,3.3149,-0.0171521,0.267745,1.00104
441,1241,3.31384,-0.018454,0.268139,1.00014
449,1233,3.31406,-0.0184719,0.268139,1.00013
457,1225,3.31293,-0.0197554,0.268549,0.999284
465,1217,3.31234,-0.0204271,0.26853,0.998891
473,1209,3.31399,-0.0179558,0.267575,0.998057
481,1201,3.31315,-0.0184314,0.267567,0.997776
489,1193,3.3128,-0.0192125,0.267967,0.997164
497,1185,3.31246,-0.019839,0.267962,0.996838
505,1177,3.3139,-0.0172823,0.26701,0.996045
513,1169,3.31386,-0.0178633,0.266997,0.995718
521,1161,3.31278,-0.0192703,0.267399,0.994776
529,1153,3.31226,-0.0200395,0.267814,0.994208
537,1145,3.31223,-0.0206595,0.267803,0.993867
545,1137,3.31307,-0.0180649,0.266835,0.993029
553,1129,3.31288,-0.0193862,0.267236,0.992154
561,1121,3.31275,-0.0201119,0.267239,0.99179
569,1113,3.31133,-0.0208191,0.267638,0.991202
577,1105,3.31259,-0.0182309,0.266684,0.990408
585,1097,3.31237,-0.0195432,0.267094,0.989553
593,1089,3.31136,-0.0209306,0.267496,0.988632
601,1081,3.31293,-0.0180985,0.266122,0.988131
609,1073,3.31235,-0.0188432,0.266523,0.987515
617,1065,3.31147,-0.0203406,0.266911,0.986589
625,1057,3.31306,-0.0176413,0.265643,0.986
633,1049,3.31278,-0.0189072,0.265557,0.985369
641,1041,3.3121,-0.0196121,0.265961,0.984785
649,1033,3.31152,-0.0203976,0.266374,0.984196
657,1025,3.31233,-0.018371,0.265395,0.983037
665,1017,3.31076,-0.0198823,0.266217,0.981849
673,1009,3.31049,-0.0204956,0.26621,0.981543
681,1001,3.31204,-0.0180093,0.265236,0.980607
689,993,3.31212,-0.0192064,0.265242,0.980036
697,985,3.31076,-0.0206623,0.265647,0.979076
705,977,3.31174,-0.0184505,0.264671,0.97801
713,969,3.31112,-0.0194022,0.265089,0.977344
721,961,3.31097,-0.0206743,0.265089,0.976706
729,953,3.31008,-0.0170255,0.265131,0.975271
737,945,3.3106,-0.0193198,0.264509,0.974961
745,937,3.31014,-0.0208464,0.265017,0.974012
753,929,3.31079,-0.0189645,0.264372,0.972562
761,921,3.31072,-0.0193993,0.263697,0.97255
769,913,3.31069,-0.0158656,0.263989,0.971043
777,905,3.31122,-0.0189482,0.264044,0.970178
785,897,3.30993,-0.020363,0.264217,0.969257
793,889,3.30926,-0.02102,0.264211,0.968921
801,881,3.31062,-0.0190026,0.263222,0.967722
809,873,3.30865,-0.0206031,0.264064,0.966739
817,865,3.30868,-0.0218569,0.264057,0.965878
825,857,3.31015,-0.0198238,0.263071,0.964688
833,849,3.30901,-0.0207022,0.263739,0.964031
841,841,3.31084,-0.018525,0.262082,0.963115
849,833,3.30938,-0.0199965,0.262928,0.961987
857,825,3.30875,-0.0215289,0.263359,0.961041
865,817,3.30934,-0.019451,0.262368,0.959865
873,809,3.30884,-0.0208264,0.26279,0.958963
881,801,3.30976,-0.0193385,0.261795,0.957489
889,793,3.30913,-0.0208702,0.262221,0.956531
897,785,3.3075,-0.0223778,0.26265,0.9556
905,777,3.30911,-0.0203323,0.261662,0.954639
913,769,3.30751,-0.0217327,0.262087,0.953501
921,761,3.30869,-0.019689,0.26109,0.952284
929,753,3.30691,-0.021161,0.261519,0.951345
937,745,3.3088,-0.0190743,0.260519,0.950129
945,737,3.30723,-0.0205445,0.260949,0.949219
953,729,3.30626,-0.0228763,0.261816,0.947665
961,721,3.30694,-0.0206264,0.261079,0.946541
969,713,3.30672,-0.0219981,0.260813,0.945874
977,705,3.30766,-0.0200036,0.25982,0.944609
985,697,3.3058,-0.0222929,0.260515,0.943084
993,689,3.30763,-0.0201994,0.260086,0.941869
1001,681,3.30595,-0.0223461,0.260371,0.940609
1009,673,3.30638,-0.0203687,0.259549,0.939085
1017,665,3.30552,-0.0218277,0.259985,0.938176
1025,657,3.30633,-0.0202535,0.258989,0.936704
1033,649,3.30534,-0.0226269,0.25943,0.9354
1041,641,3.30669,-0.0204096,0.258422,0.934193
1049,633,3.30446,-0.0228686,0.259311,0.932623
1057,625,3.30535,-0.0206249,0.258301,0.931436
1065,617,3.30432,-0.022877,0.258741,0.930145
1073,609,3.30544,-0.021612,0.258181,0.928297
1081,601,3.30369,-0.0230439,0.25862,0.927418
1089,593,3.30418,-0.0216967,0.258061,0.925556
1097,585,3.30253,-0.024098,0.258745,0.924239
1105,577,3.30404,-0.0216855,0.257033,0.923297
1113,569,3.30467,-0.0202699,0.256471,0.921475
1121,561,3.30322,-0.0226322,0.256914,0.920153
1129,553,3.30367,-0.0212917,0.256355,0.918303
1137,545,3.3025,-0.0236362,0.256807,0.917005
1145,537,3.30323,-0.0221592,0.256242,0.91519
1153,529,3.30411,-0.020726,0.255212,0.913571
1161,521,3.3022,-0.0232032,0.25613,0.912004
1169,513,3.30257,-0.022498,0.255567,0.909827
1177,505,3.30078,-0.0248317,0.256032,0.908575
1185,497,3.30076,-0.0234581,0.255465,0.906511
1193,489,3.30103,-0.0227606,0.2549,0.904481
1201,481,3.29924,-0.0252129,0.255372,0.903174
1209,473,3.29995,-0.0245151,0.254805,0.900984
1217,465,3.30114,-0.0229815,0.253768,0.899366
1225,457,3.30116,-0.0223042,0.253199,0.897134
1233,449,3.29882,-0.0234581,0.253674,0.895208
1241,441,3.29967,-0.0259315,0.251684,0.893485
1249,433,3.30086,-0.0212026,0.250172,0.891001
1257,425,3.30034,-0.0287374,0.24959,0.88888
1265,417,3.29803,-0.0299904,0.250066,0.886917
1273,409,3.29936,-0.0230236,0.248068,0.88444
1281,401,3.30027,-0.0244165,0.246559,0.881981
1289,393,3.2993,-0.0293333,0.246439,0.880535
1297,385,3.30038,-0.0226983,0.244448,0.877911
1305,377,3.30107,-0.0244328,0.242459,0.875301
1313,369,3.29803,-0.031768,0.244075,0.873716
1321,361,3.29972,-0.0222955,0.241396,0.8715
1329,353,3.29898,-0.0288391,0.240798,0.868594
1337,345,3.29917,-0.0259929,0.23973,0.866296
1345,337,3.30014,-0.0293366,0.237734,0.86422
1353,329,3.29885,-0.0296279,0.237596,0.861616
1361,321,3.30097,-0.0223111,0.235142,0.859181
1369,313,3.29736,-0.0267097,0.236516,0.856664
1377,305,3.29818,-0.0299747,0.234515,0.854634
1385,297,3.29811,-0.0272173,0.233432,0.852263
1393,289,3.29867,-0.0229181,0.2319,0.849563
1401,281,3.29878,-0.0295159,0.230818,0.846956
1409,273,3.29877,-0.0265571,0.229741,0.844675
1417,265,3.29886,-0.0309368,0.228196,0.841982
1425,257,3.29815,-0.028971,0.227555,0.839048
1433,249,3.29829,-0.0269123,0.22647,0.836416
1441,241,3.29897,-0.0305451,0.224921,0.834038
1449,233,3.29877,-0.0283948,0.223826,0.831423
1457,225,3.29984,-0.0217738,0.221828,0.828607
1465,217,3.29859,-0.0219343,0.221624,0.825797
1473,209,3.29921,-0.0264715,0.220079,0.823122
1481,201,3.29959,-0.0219332,0.21852,0.820422
1489,193,3.29815,-0.0246002,0.218765,0.817637
1497,185,3.29897,-0.0280705,0.216748,0.815611
1505,177,3.29968,-0.0234989,0.215191,0.812929
1513,169,3.2987,-0.0215008,0.214527,0.809997
1521,161,3.29915,-0.0261079,0.212956,0.807279
1529,153,3.29917,-0.0239127,0.211831,0.804637
1537,145,3.29895,-0.0215352,0.210702,0.802074
1545,137,3.29701,-0.0250847,0.210104,0.798724
1553,129,3.29913,-0.0227761,0.208008,0.796011
1561,121,3.29863,-0.0298216,0.207086,0.793397
1569,113,3.29717,-0.0325132,0.207054,0.790649
1577,105,3.29919,-0.0229788,0.204151,0.788034
1585,97,3.2979,-0.032777,0.203882,0.7852
1593,89,3.29827,-0.0280305,0.202286,0.782477
1601,81,3.29809,-0.0256023,0.201134,0.780132
1609,73,3.29798,-0.0233236,0.199982,0.777271
1617,65,3.29695,-0.0317885,0.199264,0.774017
1625,57,3.29708,-0.0269878,0.197657,0.771278
1633,49,3.29725,-0.0247042,0.196497,0.768649
1641,41,3.29777,-0.030488,0.194892,0.765631
1649,33,3.29809,-0.0281952,0.193723,0.763012
1657,25,3.29972,-0.0185909,0.191433,0.760086
1665,17,3.2968,-0.0344748,0.191999,0.757148
1673,9,3.29613,-0.0321935,0.190615,0.7545
1679,3,3.29692,-0.0297513,0.189626,0.751901