File: hust_correlation_analysis/matrices/HUST_7-4_cycle_feature_matrix.csv
cycle_number,rul,voltage,current,capacity,charge_capacity
1,1395,3.3072,-0.00540771,0.329013,1.03156
8,1388,3.30009,-0.0068703,0.333406,1.02637
15,1381,3.3001,-0.0080735,0.333109,1.02575
22,1374,3.30159,-0.00689157,0.331886,1.0245
29,1367,3.30049,-0.0073544,0.332147,1.02412
36,1360,3.29996,-0.00794101,0.332229,1.02371
43,1353,3.30281,-0.00576844,0.330717,1.02325
50,1346,3.30221,-0.00692919,0.331134,1.02232
57,1339,3.30131,-0.00750459,0.331139,1.02197
64,1332,3.3011,-0.00816789,0.331562,1.02136
71,1325,3.3031,-0.006047,0.330066,1.02092
78,1318,3.30287,-0.00692402,0.330198,1.02034
85,1311,3.30232,-0.00695874,0.330059,1.02032
92,1304,3.30192,-0.00804231,0.330498,1.01949
99,1297,3.30403,-0.0057552,0.328986,1.0191
106,1290,3.30371,-0.00631886,0.328981,1.0187
113,1283,3.30336,-0.00688977,0.329038,1.01819
120,1276,3.30335,-0.00708121,0.329109,1.01821
127,1269,3.30361,-0.00742116,0.328983,1.01798
134,1262,3.30225,-0.0077896,0.329411,1.01761
141,1255,3.30277,-0.00820436,0.329044,1.01736
148,1248,3.30305,-0.00883105,0.329034,1.01693
155,1241,3.30451,-0.00655511,0.327955,1.01636
162,1234,3.30452,-0.00703322,0.327958,1.01607
169,1227,3.30337,-0.00769049,0.328374,1.01546
176,1220,3.30305,-0.00798111,0.328746,1.01524
183,1213,3.30392,-0.00798499,0.328301,1.01536
190,1206,3.30423,-0.00848703,0.327944,1.01505
197,1199,3.30354,-0.00860861,0.327948,1.01499
204,1192,3.30448,-0.00631992,0.327294,1.01432
211,1185,3.30435,-0.00682076,0.327733,1.01393
218,1178,3.30453,-0.007014,0.327637,1.01375
225,1171,3.30484,-0.00685175,0.327606,1.01377
232,1164,3.30432,-0.0076482,0.32763,1.0133
239,1157,3.30357,-0.00769847,0.327629,1.01327
246,1150,3.30341,-0.00820994,0.327636,1.01295
253,1143,3.30519,-0.00593305,0.326566,1.01245
260,1136,3.30577,-0.0060966,0.326135,1.01247
267,1129,3.30614,-0.00644358,0.32573,1.01243
274,1122,3.30493,-0.00689924,0.325714,1.01199
281,1115,3.30527,-0.00759255,0.326149,1.01154
288,1108,3.30392,-0.00770769,0.326573,1.0113
295,1101,3.30464,-0.00803216,0.326635,1.01122
302,1094,3.30646,-0.0058566,0.325071,1.01059
309,1087,3.30664,-0.00580752,0.324647,1.0108
316,1080,3.30728,-0.00652536,0.324286,1.01036
323,1073,3.30654,-0.00658183,0.324649,1.0103
330,1066,3.30649,-0.0069815,0.324279,1.01004
337,1059,3.30624,-0.00780006,0.324295,1.00951
344,1052,3.30556,-0.00775269,0.324705,1.00939
351,1045,3.3058,-0.00834603,0.324715,1.009
358,1038,3.3063,-0.00881922,0.324294,1.00885
365,1031,3.3076,-0.00652458,0.323226,1.00832
372,1024,3.30803,-0.00655004,0.32279,1.00841
379,1017,3.3074,-0.00712624,0.323351,1.00791
386,1010,3.30743,-0.00769849,0.323221,1.00754
393,1003,3.307,-0.00822845,0.323223,1.00719
400,996,3.30643,-0.00832573,0.323217,1.00711
407,989,3.30783,-0.00652183,0.322559,1.00609
414,982,3.3072,-0.00664939,0.322674,1.00463
421,975,3.3078,-0.00695065,0.322542,1.00574
428,968,3.30688,-0.00750924,0.322906,1.00535
435,961,3.30804,-0.00807361,0.322119,1.00513
442,954,3.30707,-0.00810702,0.32297,1.0051
449,947,3.30783,-0.00885358,0.321711,1.00478
456,940,3.30917,-0.00691574,0.321046,1.00382
463,933,3.30924,-0.0068574,0.320628,1.00401
470,926,3.30879,-0.00769692,0.321053,1.00333
477,919,3.30867,-0.00826695,0.321056,1.00295
484,912,3.30937,-0.00547618,0.320335,1.00269
491,905,3.3102,-0.00604066,0.319564,1.00248
498,898,3.30905,-0.00660539,0.319977,1.00196
505,891,3.30966,-0.00716156,0.319556,1.00171
512,884,3.30877,-0.00783724,0.319986,1.00113
519,877,3.30892,-0.00822483,0.319989,1.0009
526,870,3.30756,-0.00893471,0.320528,0.998933
533,863,3.30979,-0.00651069,0.318977,0.999907
540,856,3.30939,-0.00766685,0.319329,0.998994
547,849,3.30899,-0.00823287,0.319308,0.998566
554,842,3.30809,-0.00883389,0.319727,0.998038
561,835,3.30998,-0.00660872,0.318363,0.99754
568,828,3.30993,-0.00681754,0.318232,0.997413
575,821,3.30894,-0.00749857,0.319013,0.996777
582,814,3.31031,-0.00515631,0.317936,0.996248
589,807,3.31004,-0.0063576,0.318352,0.995292
596,800,3.30998,-0.00689354,0.317932,0.995057
603,793,3.3101,-0.00747043,0.317938,0.994693
610,786,3.30955,-0.00869676,0.317991,0.99374
617,779,3.31106,-0.00650765,0.316871,0.993238
624,772,3.31052,-0.00718381,0.316853,0.992637
631,765,3.31059,-0.00824858,0.316923,0.991944
638,758,3.31098,-0.00602676,0.316227,0.991162
645,751,3.31175,-0.00708831,0.315844,0.990561
652,744,3.30979,-0.00750346,0.31661,0.990087
659,737,3.31197,-0.00598076,0.31555,0.989018
666,730,3.31065,-0.00698069,0.315956,0.988179
673,723,3.31101,-0.00756681,0.315961,0.987798
680,716,3.31032,-0.00894234,0.316025,0.98676
687,709,3.31173,-0.0066542,0.31495,0.986182
694,702,3.31063,-0.00783964,0.315723,0.985188
701,695,3.31121,-0.00877502,0.31449,0.984966
708,688,3.31159,-0.0069579,0.314645,0.983615
715,681,3.31121,-0.00776712,0.314654,0.983105
722,674,3.31103,-0.00899723,0.314726,0.982202
729,667,3.3123,-0.00672123,0.313642,0.981568
736,660,3.31154,-0.00791949,0.314051,0.980586
743,653,3.31302,-0.00608972,0.312998,0.97973
750,646,3.31208,-0.00716236,0.313415,0.978869
757,639,3.31153,-0.00843196,0.313475,0.977989
764,632,3.31261,-0.00662334,0.312768,0.97693
771,625,3.31161,-0.00787284,0.313182,0.975954
778,618,3.3111,-0.00903353,0.313177,0.975142
785,611,3.31175,-0.00726628,0.312515,0.973991
792,604,3.31081,-0.00851723,0.312933,0.973009
799,597,3.31132,-0.00681936,0.312288,0.971853
806,590,3.31032,-0.00802146,0.313064,0.970873
813,583,3.31015,-0.00754931,0.312699,0.969893
820,576,3.31207,-0.0103093,0.31079,0.968871
827,569,3.31151,-0.0103747,0.310779,0.967512
834,562,3.31244,-0.00737711,0.309718,0.966095
841,555,3.31228,-0.00701912,0.309432,0.965191
848,548,3.31227,-0.0118976,0.309066,0.963484
855,541,3.3133,-0.00833717,0.308414,0.962497
862,534,3.31339,-0.00885292,0.307703,0.960907
869,527,3.31229,-0.00709796,0.307168,0.95962
876,520,3.3137,-0.0112225,0.306108,0.958724
883,513,3.31243,-0.0115792,0.306519,0.957029
890,506,3.31333,-0.00678266,0.305038,0.955624
897,499,3.31308,-0.00698504,0.304621,0.954323
904,492,3.31329,-0.0118806,0.30439,0.952648
911,485,3.31225,-0.0121628,0.304867,0.951141
918,478,3.31363,-0.00880734,0.302903,0.950044
925,471,3.31459,-0.00466686,0.301444,0.948182
932,464,3.31314,-0.0124062,0.302264,0.946777
939,457,3.31425,-0.00976114,0.301101,0.945064
946,450,3.31396,-0.00645067,0.299959,0.943732
953,443,3.31372,-0.00597327,0.300135,0.9415
960,436,3.31304,-0.0121597,0.299725,0.940207
967,429,3.31466,-0.00739666,0.297846,0.938858
974,422,3.31384,-0.00839965,0.298429,0.936823
981,415,3.31306,-0.0131334,0.298033,0.935239
988,408,3.31434,-0.0103553,0.296562,0.933734
995,401,3.31441,-0.00839315,0.296322,0.931307
1002,394,3.31313,-0.00713723,0.295921,0.929684
1009,387,3.31422,-0.00949922,0.29451,0.92746
1016,380,3.31482,-0.00837129,0.293803,0.926151
1023,373,3.31278,-0.0092061,0.294617,0.923792
1030,366,3.31314,-0.0132176,0.293564,0.921685
1037,359,3.31426,-0.00892758,0.292107,0.919841
1044,352,3.31449,-0.00684493,0.291463,0.917628
1051,345,3.31424,-0.0107756,0.290821,0.915456
1058,338,3.31287,-0.0102634,0.29129,0.913098
1065,331,3.31302,-0.00655212,0.290232,0.91082
1072,324,3.31348,-0.0111537,0.289135,0.908245
1079,317,3.3135,-0.00901241,0.288493,0.906048
1086,310,3.31398,-0.00537475,0.287453,0.903612
1093,303,3.31414,-0.0108654,0.286808,0.90179
1100,296,3.3126,-0.00779124,0.286301,0.898656
1107,289,3.31256,-0.00728567,0.286165,0.896558
1114,282,3.31201,-0.0128423,0.285926,0.894581
1121,275,3.3119,-0.00947455,0.285227,0.891923
1128,268,3.31323,-0.0119206,0.283431,0.889723
1135,261,3.3119,-0.0121055,0.283944,0.887054
1142,254,3.31279,-0.00855662,0.282568,0.884561
1149,247,3.31183,-0.00701889,0.282337,0.881823
1156,240,3.31119,-0.0102974,0.281695,0.878807
1163,233,3.31181,-0.00521043,0.280192,0.876141
1170,226,3.31179,-0.0103421,0.279629,0.873246
1177,219,3.312,-0.00551541,0.27859,0.870162
1184,212,3.3121,-0.0103498,0.277551,0.867649
1191,205,3.31119,-0.00723192,0.277254,0.864671
1198,198,3.31208,-0.0118665,0.27589,0.862353
1205,191,3.31245,-0.00872167,0.274918,0.85954
1212,184,3.31181,-0.0119808,0.274229,0.856612
1219,177,3.31196,-0.0103533,0.273608,0.85404
1226,170,3.31097,-0.00882645,0.273376,0.851272
1233,163,3.31088,-0.00781616,0.272746,0.848293
1240,156,3.30929,-0.0128298,0.272824,0.845389
1247,149,3.31022,-0.00520069,0.270913,0.841595
1254,142,3.31053,-0.0100669,0.270064,0.839097
1261,135,3.31023,-0.00750945,0.269443,0.835751
1268,128,3.31045,-0.0123732,0.268421,0.833326
1275,121,3.31052,-0.00609888,0.266793,0.829875
1282,114,3.31144,-0.0114225,0.266214,0.827272
1289,107,3.31004,-0.0116408,0.266338,0.824639
1296,100,3.31072,-0.0108497,0.264304,0.820654
1303,93,3.31041,-0.0089356,0.263874,0.818084
1310,86,3.31103,-0.00558468,0.262464,0.815419
1317,79,3.31052,-0.011338,0.262237,0.812267
1324,72,3.31067,-0.00619861,0.260826,0.809322
1331,65,3.30955,-0.00803622,0.261008,0.807071
1338,58,3.30871,-0.0103801,0.260388,0.803416
1345,51,3.30919,-0.0138264,0.259368,0.800568
1352,44,3.30865,-0.0110308,0.258765,0.797349
1359,37,3.30927,-0.00762298,0.25735,0.794643
1366,30,3.30808,-0.013447,0.25713,0.791514
1373,23,3.30954,-0.00672553,0.255115,0.788487
1380,16,3.30856,-0.00507735,0.254901,0.785712
1387,9,3.30878,-0.00680443,0.25388,0.782514
1393,3,3.30735,-0.0151326,0.25388,0.780382