File: hust_correlation_analysis/matrices/HUST_10-2_cycle_feature_matrix.csv
cycle_number,rul,voltage,current,capacity,charge_capacity
1,1699,3.31987,0.0102124,0.264849,1.0254
9,1691,3.30471,-0.0238848,0.277039,1.01232
17,1683,3.30826,-0.0221943,0.274324,1.01744
25,1675,3.3117,-0.0200239,0.272263,1.01994
33,1667,3.31186,-0.0205952,0.271094,1.02016
41,1659,3.3122,-0.0212954,0.270965,1.02007
49,1651,3.31263,-0.0217522,0.270294,1.02008
57,1643,3.31225,-0.0203632,0.269627,1.01867
65,1635,3.31308,-0.0213139,0.269293,1.01821
73,1627,3.31415,-0.0191485,0.268292,1.01718
81,1619,3.31367,-0.021454,0.269093,1.01582
89,1611,3.31421,-0.0188661,0.267683,1.015
97,1603,3.31385,-0.0201658,0.268078,1.01412
105,1595,3.31307,-0.0216321,0.268478,1.01318
113,1587,3.3141,-0.0196023,0.267471,1.01208
121,1579,3.31371,-0.0203158,0.267871,1.01149
129,1571,3.31292,-0.0216196,0.268271,1.01063
137,1563,3.31347,-0.0197833,0.267663,1.00919
145,1555,3.31355,-0.0203524,0.267663,1.0089
153,1547,3.3119,-0.0218123,0.268468,1.00772
161,1539,3.3139,-0.0191593,0.267057,1.00715
169,1531,3.31273,-0.0205775,0.267862,1.00599
177,1523,3.31205,-0.0213255,0.268267,1.00539
185,1515,3.31178,-0.0225352,0.268672,1.00457
193,1507,3.31333,-0.0199561,0.267252,1.00392
201,1499,3.31208,-0.0206601,0.267658,1.00335
209,1491,3.31214,-0.0219452,0.268061,1.00249
217,1483,3.31075,-0.0227162,0.268462,1.00188
225,1475,3.31157,-0.0201256,0.267454,1.00124
233,1467,3.31219,-0.020793,0.267827,1.00069
241,1459,3.31117,-0.02149,0.268241,0.998791
249,1451,3.31017,-0.0223039,0.268278,0.999506
257,1443,3.30926,-0.0230628,0.268684,0.998877
265,1435,3.31121,-0.020429,0.267667,0.998013
273,1427,3.31071,-0.021035,0.267666,0.997728
281,1419,3.30905,-0.0225152,0.268494,0.996545
289,1411,3.30945,-0.0231137,0.268081,0.996508
297,1403,3.31074,-0.0203886,0.267062,0.995686
305,1395,3.31096,-0.0210297,0.267059,0.995378
313,1387,3.30895,-0.0225417,0.267892,0.994194
321,1379,3.30927,-0.0231799,0.267892,0.9939
329,1371,3.31039,-0.0206092,0.26687,0.992996
337,1363,3.31012,-0.0212454,0.267067,0.99244
345,1355,3.30989,-0.0220171,0.267283,0.992096
353,1347,3.30864,-0.0227273,0.2677,0.991514
361,1339,3.30991,-0.0206309,0.267055,0.990371
369,1331,3.30967,-0.0212201,0.266679,0.990104
377,1323,3.30978,-0.0220605,0.267097,0.98948
385,1315,3.30867,-0.0228203,0.267515,0.988869
393,1307,3.31051,-0.0200836,0.26607,0.988274
401,1299,3.30953,-0.0214305,0.266491,0.98741
409,1291,3.30852,-0.0222353,0.267292,0.986785
417,1283,3.30861,-0.022861,0.266911,0.986493
425,1275,3.30755,-0.0236724,0.267334,0.985884
433,1267,3.30914,-0.0215667,0.266304,0.984724
441,1259,3.3087,-0.0223085,0.266727,0.984138
449,1251,3.30809,-0.0231723,0.267152,0.983505
457,1243,3.30797,-0.0237835,0.267152,0.983234
465,1235,3.30973,-0.0210189,0.265696,0.982619
473,1227,3.30777,-0.0224901,0.266544,0.981439
481,1219,3.30728,-0.0231999,0.266976,0.980886
489,1211,3.30661,-0.0239991,0.266974,0.980513
497,1203,3.3074,-0.0212141,0.265936,0.979647
505,1195,3.3078,-0.0218812,0.266346,0.979344
513,1187,3.30637,-0.022695,0.266743,0.978724
521,1179,3.30682,-0.0241429,0.266362,0.978059
529,1171,3.30808,-0.0213253,0.265326,0.977204
537,1163,3.30764,-0.0219783,0.265327,0.976911
545,1155,3.30681,-0.0227941,0.265754,0.976308
553,1147,3.30667,-0.0242243,0.266188,0.975416
561,1139,3.30747,-0.0215313,0.265152,0.974505
569,1131,3.30721,-0.022789,0.265151,0.973936
577,1123,3.30687,-0.0236117,0.265581,0.973327
585,1115,3.30621,-0.0243677,0.26558,0.972795
593,1107,3.30741,-0.0222193,0.264542,0.971804
601,1099,3.30752,-0.0228414,0.264542,0.97153
609,1091,3.30636,-0.023691,0.264974,0.970902
617,1083,3.30708,-0.0216904,0.264363,0.969395
625,1075,3.30674,-0.0223125,0.264367,0.969125
633,1067,3.30639,-0.0231732,0.265183,0.968493
641,1059,3.30528,-0.024638,0.265234,0.967581
649,1051,3.30601,-0.0218674,0.264194,0.966679
657,1043,3.30594,-0.0233832,0.264631,0.96576
665,1035,3.30552,-0.0240748,0.264628,0.965446
673,1027,3.30687,-0.021971,0.263581,0.964227
681,1019,3.3061,-0.0226031,0.263581,0.964131
689,1011,3.30653,-0.0204876,0.262859,0.962724
697,1003,3.30519,-0.0248306,0.264018,0.962715
705,995,3.30586,-0.0228802,0.263409,0.961181
713,987,3.30462,-0.0234282,0.26341,0.960938
721,979,3.30349,-0.0243651,0.26385,0.960285
729,971,3.30544,-0.022158,0.262798,0.959095
737,963,3.30534,-0.0237458,0.263241,0.958155
745,955,3.30479,-0.024353,0.263242,0.957898
753,947,3.30607,-0.0223025,0.262188,0.95662
761,939,3.30463,-0.0231311,0.262628,0.956013
769,931,3.30416,-0.0244992,0.262633,0.955424
777,923,3.30552,-0.0223214,0.261834,0.954207
785,915,3.30478,-0.0231882,0.262021,0.953587
793,907,3.30437,-0.0246365,0.262018,0.95295
801,899,3.30512,-0.0225651,0.261411,0.951441
809,891,3.30434,-0.0233059,0.261407,0.951125
817,883,3.3029,-0.0246299,0.261851,0.950282
825,875,3.30507,-0.0218857,0.260343,0.949561
833,867,3.30444,-0.0233025,0.260883,0.948705
841,859,3.3039,-0.0248932,0.261243,0.948019
849,851,3.30512,-0.022809,0.260183,0.946506
857,843,3.30388,-0.0244495,0.26063,0.945542
865,835,3.30217,-0.0258981,0.261082,0.944921
873,827,3.30322,-0.0230019,0.260019,0.943748
881,819,3.30362,-0.0243999,0.260018,0.943153
889,811,3.30222,-0.0259999,0.26047,0.942216
897,803,3.30347,-0.0238185,0.259404,0.940976
905,795,3.3021,-0.0254159,0.259859,0.940042
913,787,3.3043,-0.0232055,0.258789,0.938816
921,779,3.30341,-0.0247445,0.259244,0.937896
929,771,3.30156,-0.0263279,0.260102,0.936971
937,763,3.30306,-0.0241,0.258627,0.935718
945,755,3.30232,-0.0258959,0.259083,0.934701
953,747,3.30353,-0.0234757,0.258008,0.933532
961,739,3.30218,-0.0251392,0.25847,0.932591
969,731,3.30061,-0.0267269,0.259332,0.931656
977,723,3.302,-0.0244738,0.257848,0.930396
985,715,3.30131,-0.0260324,0.258707,0.929498
993,707,3.30231,-0.023649,0.257021,0.92855
1001,699,3.30085,-0.0253213,0.257225,0.927577
1009,691,3.30038,-0.0270692,0.25749,0.92662
1017,683,3.30177,-0.024749,0.256609,0.92538
1025,675,3.29992,-0.0271273,0.25707,0.924122
1033,667,3.30119,-0.024943,0.256458,0.922576
1041,659,3.30072,-0.0263968,0.256458,0.92175
1049,651,3.30202,-0.0247879,0.255366,0.920436
1057,643,3.29956,-0.0266833,0.256307,0.919138
1065,635,3.30197,-0.0242377,0.254739,0.918179
1073,627,3.30007,-0.0268288,0.255684,0.916612
1081,619,3.30097,-0.0244366,0.254591,0.915363
1089,611,3.29989,-0.0261148,0.255064,0.914425
1097,603,3.30098,-0.0245217,0.253965,0.91284
1105,595,3.29927,-0.0262934,0.254436,0.911846
1113,587,3.30104,-0.0246677,0.253339,0.910273
1121,579,3.29969,-0.0263085,0.253814,0.909358
1129,571,3.30026,-0.0249623,0.253589,0.907401
1137,563,3.29879,-0.026663,0.253367,0.906455
1145,555,3.30004,-0.0250765,0.252565,0.904843
1153,547,3.29771,-0.0276539,0.253527,0.903292
1161,539,3.29889,-0.0252881,0.252419,0.901996
1169,531,3.29776,-0.0278292,0.252903,0.900723
1177,523,3.2977,-0.02627,0.252277,0.89882
1185,515,3.29664,-0.0290542,0.252765,0.89746
1193,507,3.29785,-0.0265651,0.251649,0.896191
1201,499,3.29577,-0.0290487,0.252136,0.894942
1209,491,3.2976,-0.0275062,0.25102,0.893294
1217,483,3.29808,-0.0259017,0.250389,0.891401
1225,475,3.29651,-0.0284827,0.250878,0.890107
1233,467,3.29772,-0.026821,0.249755,0.888492
1241,459,3.29483,-0.0296478,0.250746,0.886851
1249,451,3.29674,-0.0280647,0.249616,0.885188
1257,443,3.29637,-0.0264767,0.248984,0.883245
1265,435,3.29462,-0.02998,0.249986,0.881358
1273,427,3.29437,-0.0284523,0.249357,0.879371
1281,419,3.29594,-0.0269394,0.248218,0.877619
1289,411,3.29374,-0.029526,0.248723,0.876418
1297,403,3.29512,-0.0288792,0.248088,0.874087
1305,395,3.29534,-0.0270997,0.246943,0.872438
1313,387,3.29274,-0.0309171,0.247964,0.870456
1321,379,3.29354,-0.0293233,0.247328,0.868468
1329,371,3.294,-0.0275419,0.246173,0.866805
1337,363,3.29506,-0.0268234,0.245534,0.864482
1345,355,3.29249,-0.03066,0.24657,0.86249
1353,347,3.29296,-0.0297288,0.245407,0.859203
1361,339,3.29302,-0.0281543,0.244766,0.858459
1369,331,3.29333,-0.0274833,0.244123,0.856079
1377,323,3.29058,-0.0312888,0.245177,0.854128
1385,315,3.29137,-0.0303936,0.244002,0.852098
1393,307,3.2916,-0.0295878,0.243356,0.849739
1401,299,3.29181,-0.0289427,0.242714,0.847329
1409,291,3.29172,-0.0280755,0.242064,0.844978
1417,283,3.28918,-0.0330516,0.243135,0.8426
1425,275,3.28858,-0.0323355,0.242489,0.840203
1433,267,3.28838,-0.0325941,0.241842,0.837424
1441,259,3.28892,-0.0318341,0.241191,0.835012
1449,251,3.28902,-0.0369895,0.239437,0.832351
1457,243,3.28871,-0.0345751,0.238236,0.82968
1465,235,3.28939,-0.0286221,0.236482,0.827399
1473,227,3.2887,-0.034884,0.235269,0.824082
1481,219,3.28866,-0.0338756,0.23405,0.822041
1489,211,3.2887,-0.0392891,0.232829,0.819056
1497,203,3.28981,-0.031363,0.229989,0.816868
1505,195,3.28797,-0.0318804,0.229829,0.813686
1513,187,3.28861,-0.0343984,0.227528,0.811165
1521,179,3.2881,-0.0318961,0.226287,0.808481
1529,171,3.28796,-0.0397671,0.225043,0.805826
1537,163,3.28811,-0.0330977,0.223409,0.802565
1545,155,3.28687,-0.0332433,0.222544,0.799832
1553,147,3.28703,-0.0386618,0.221171,0.797173
1561,139,3.28649,-0.0345865,0.219493,0.793874
1569,131,3.28594,-0.0427618,0.218227,0.79118
1577,123,3.28696,-0.0357849,0.215909,0.788276
1585,115,3.28926,-0.0387117,0.212841,0.785223
1593,107,3.28883,-0.034548,0.211207,0.78192
1601,99,3.28814,-0.0320219,0.210262,0.779433
1609,91,3.28806,-0.0386828,0.208972,0.775919
1617,83,3.28704,-0.0346843,0.207675,0.772552
1625,75,3.28803,-0.0400462,0.205341,0.770279
1633,67,3.28597,-0.0414811,0.205056,0.767084
1641,59,3.28952,-0.0401636,0.201401,0.763199
1649,51,3.28856,-0.0374797,0.200075,0.760527
1657,43,3.28828,-0.0331487,0.199151,0.757213
1665,35,3.28809,-0.0400884,0.196898,0.754203
1673,27,3.28686,-0.0385959,0.196374,0.750857
1681,19,3.28694,-0.0454392,0.194206,0.747906
1689,11,3.28961,-0.0357094,0.191001,0.744143
1697,3,3.29007,-0.0310464,0.189139,0.741218