File: hust_correlation_analysis/matrices/HUST_2-6_cycle_feature_matrix.csv
cycle_number,rul,voltage,current,capacity,charge_capacity
1,1574,3.32588,0.026388,0.265684,1.02413
9,1566,3.30964,-0.0234726,0.28348,0.998379
17,1558,3.31293,-0.023547,0.28122,1.00759
25,1550,3.31518,-0.0225295,0.27924,1.0119
33,1542,3.31712,-0.0210308,0.277129,1.01377
41,1534,3.31861,-0.0202356,0.275457,1.01504
49,1526,3.31878,-0.0202445,0.275028,1.0152
57,1518,3.31841,-0.0223885,0.275021,1.01539
65,1510,3.31885,-0.0220604,0.274199,1.01476
73,1502,3.32081,-0.0210726,0.272788,1.01485
81,1494,3.32043,-0.0220268,0.272795,1.01416
89,1486,3.31993,-0.0214916,0.272798,1.01318
97,1478,3.32138,-0.0212213,0.271793,1.01244
105,1470,3.32106,-0.0218652,0.2718,1.01215
113,1462,3.32011,-0.0215435,0.272208,1.01083
121,1454,3.32158,-0.0206538,0.271205,1.01039
129,1446,3.32108,-0.0220585,0.271613,1.00948
137,1438,3.3207,-0.0216067,0.271625,1.00848
145,1430,3.32006,-0.0223179,0.27202,1.00648
153,1422,3.32139,-0.0214478,0.27143,1.00721
161,1414,3.32036,-0.0211948,0.271866,1.00594
169,1406,3.31968,-0.0225567,0.272277,1.00504
177,1398,3.32125,-0.0198457,0.27087,1.00449
185,1390,3.32043,-0.0212706,0.2717,1.00337
193,1382,3.31952,-0.0219742,0.272113,1.0028
201,1374,3.32052,-0.0194294,0.271112,1.00191
209,1366,3.3198,-0.0207474,0.271622,1.00103
217,1358,3.31902,-0.0214914,0.271934,1.00042
225,1350,3.31846,-0.0221829,0.272346,0.999862
233,1342,3.31976,-0.0202313,0.271346,0.998675
241,1334,3.31933,-0.0209064,0.271351,0.998376
249,1326,3.31865,-0.0214724,0.271728,0.997814
257,1318,3.31813,-0.0239172,0.272128,0.997527
265,1310,3.31701,-0.0241345,0.27294,0.996845
273,1302,3.31861,-0.0220528,0.271535,0.996009
281,1294,3.31761,-0.0227854,0.271947,0.995402
289,1286,3.31686,-0.0242393,0.27238,0.994522
297,1278,3.31871,-0.0213953,0.270956,0.99401
305,1270,3.31792,-0.0228851,0.271368,0.993038
313,1262,3.31711,-0.0237205,0.271792,0.992233
321,1254,3.31684,-0.0243512,0.272076,0.992184
329,1246,3.3181,-0.0216555,0.270788,0.991288
337,1238,3.31738,-0.0224089,0.271204,0.990667
345,1230,3.31682,-0.0238101,0.271648,0.989846
353,1222,3.31653,-0.024433,0.271645,0.989558
361,1214,3.31644,-0.0250318,0.271637,0.989242
369,1206,3.31818,-0.0224298,0.27064,0.988374
377,1198,3.31718,-0.0220622,0.271073,0.987073
385,1190,3.31644,-0.0246016,0.271491,0.986883
393,1182,3.31771,-0.0219032,0.270476,0.986004
401,1174,3.31751,-0.0216053,0.270504,0.985001
409,1166,3.31714,-0.0221726,0.270498,0.984707
417,1158,3.31564,-0.0229272,0.271346,0.983831
425,1150,3.31726,-0.0209646,0.270351,0.982692
433,1142,3.31663,-0.0216613,0.270791,0.98216
441,1134,3.31569,-0.0224433,0.271202,0.981482
449,1126,3.31624,-0.0231314,0.271046,0.981449
457,1118,3.31709,-0.0211511,0.270658,0.979831
465,1110,3.31662,-0.0218013,0.270655,0.97952
473,1102,3.31552,-0.0225602,0.271075,0.978889
481,1094,3.31494,-0.0241345,0.271534,0.977997
489,1086,3.31596,-0.0212653,0.270493,0.977112
497,1078,3.31502,-0.0221195,0.270916,0.976419
505,1070,3.31454,-0.0227733,0.270912,0.976111
513,1062,3.31409,-0.0242386,0.271357,0.975234
521,1054,3.31601,-0.0213187,0.269886,0.974618
529,1046,3.31526,-0.0221108,0.270318,0.973993
537,1038,3.31432,-0.023669,0.270776,0.973119
545,1030,3.31321,-0.0243277,0.271213,0.972558
553,1022,3.31503,-0.0214558,0.269737,0.97192
561,1014,3.31428,-0.0229743,0.27046,0.969713
569,1006,3.31393,-0.0237646,0.270654,0.97051
577,998,3.31514,-0.0216504,0.269702,0.969243
585,990,3.31438,-0.0223433,0.269587,0.968866
593,982,3.31291,-0.0239682,0.270508,0.967764
601,974,3.31479,-0.0210629,0.269034,0.967168
609,966,3.31451,-0.0225621,0.269463,0.966179
617,958,3.31317,-0.0233884,0.269921,0.965614
625,950,3.312,-0.0249381,0.270856,0.964544
633,942,3.31388,-0.0220018,0.269375,0.963941
641,934,3.31321,-0.0234092,0.269821,0.963057
649,926,3.31228,-0.0243067,0.270286,0.962477
657,918,3.31334,-0.0220914,0.269259,0.961298
665,910,3.3127,-0.0235797,0.269713,0.960426
673,902,3.31207,-0.0243949,0.270162,0.959791
681,894,3.31298,-0.0222457,0.269128,0.958579
689,886,3.31232,-0.0229912,0.269724,0.958245
697,878,3.31182,-0.0245515,0.269576,0.957308
705,870,3.31278,-0.0224157,0.268538,0.956076
713,862,3.31165,-0.023201,0.268992,0.955475
721,854,3.31155,-0.0246448,0.26899,0.954847
729,846,3.31291,-0.0224095,0.267943,0.953619
737,838,3.31106,-0.0239402,0.268862,0.952466
745,830,3.31077,-0.0248924,0.268961,0.952088
753,822,3.31205,-0.0226742,0.267826,0.95086
761,814,3.31117,-0.0241531,0.268288,0.94998
769,806,3.30958,-0.0258087,0.269223,0.948817
777,798,3.31184,-0.023431,0.267726,0.947963
785,790,3.31093,-0.0243254,0.268177,0.947288
793,782,3.30981,-0.0258278,0.268707,0.946589
801,774,3.31039,-0.0238376,0.267574,0.944976
809,766,3.31021,-0.0252395,0.267587,0.944438
817,758,3.31166,-0.0228459,0.266533,0.94325
825,750,3.31041,-0.0246478,0.266989,0.942207
833,742,3.30902,-0.0254438,0.267558,0.94165
841,734,3.31091,-0.0239714,0.266422,0.940123
849,726,3.30983,-0.0255654,0.26689,0.93918
857,718,3.31106,-0.0224731,0.265353,0.938512
865,710,3.3095,-0.0243705,0.266308,0.93722
873,702,3.30918,-0.0256651,0.266285,0.936642
881,694,3.31042,-0.0234184,0.26521,0.935339
889,686,3.30872,-0.0258625,0.26619,0.933909
897,678,3.31002,-0.0235519,0.265128,0.932667
905,670,3.30876,-0.0252613,0.265589,0.931663
913,662,3.30787,-0.0269399,0.266064,0.930691
921,654,3.3094,-0.0253276,0.265029,0.929248
929,646,3.30731,-0.0270989,0.26599,0.92801
937,638,3.30948,-0.0246653,0.264439,0.927051
945,630,3.30772,-0.0264576,0.265399,0.925779
953,622,3.30916,-0.0239791,0.263863,0.924901
961,614,3.30761,-0.0265205,0.264831,0.92334
969,606,3.30856,-0.0242379,0.263755,0.922049
977,598,3.30774,-0.0257576,0.264241,0.921156
985,590,3.30854,-0.0235581,0.263173,0.919852
993,582,3.3073,-0.0260218,0.26366,0.918599
1001,574,3.30608,-0.0276951,0.264136,0.917625
1009,566,3.30674,-0.0262761,0.263553,0.915707
1017,558,3.30737,-0.0239963,0.262481,0.914416
1025,550,3.30632,-0.0263917,0.262979,0.913214
1033,542,3.30763,-0.0240642,0.261886,0.911878
1041,534,3.30618,-0.0265303,0.262377,0.910617
1049,526,3.30644,-0.0249858,0.261904,0.908838
1057,518,3.30535,-0.0275105,0.262309,0.907537
1065,510,3.30665,-0.0250465,0.261215,0.906238
1073,502,3.3043,-0.0278023,0.262207,0.904603
1081,494,3.30478,-0.0263115,0.261636,0.902712
1089,486,3.30555,-0.0246531,0.260551,0.901137
1097,478,3.30453,-0.0273395,0.261048,0.899796
1105,470,3.30531,-0.0265334,0.260456,0.897563
1113,462,3.3024,-0.0293039,0.261469,0.89593
1121,454,3.30347,-0.027814,0.260382,0.894272
1129,446,3.30469,-0.0259638,0.259293,0.892774
1137,438,3.30278,-0.0295669,0.260597,0.890846
1145,430,3.30272,-0.0279762,0.259751,0.888978
1153,422,3.3027,-0.0271976,0.259171,0.886759
1161,414,3.30344,-0.0255787,0.258049,0.885037
1169,406,3.30116,-0.0292593,0.259084,0.883065
1177,398,3.30246,-0.028475,0.25802,0.881096
1185,390,3.30231,-0.0278264,0.257934,0.878571
1193,382,3.30246,-0.0278966,0.257337,0.875944
1201,374,3.3023,-0.0249572,0.256204,0.8735
1209,366,3.30259,-0.0241341,0.25507,0.871469
1217,358,3.29905,-0.0357955,0.256133,0.868837
1225,350,3.29896,-0.0325999,0.255004,0.866542
1233,342,3.29917,-0.0279997,0.253334,0.863852
1241,334,3.29934,-0.035091,0.252188,0.861162
1249,326,3.29963,-0.0296737,0.250526,0.858783
1257,318,3.29949,-0.0298114,0.249942,0.856243
1265,310,3.29913,-0.0369232,0.248791,0.85358
1273,302,3.29873,-0.0324431,0.247634,0.850528
1281,294,3.29943,-0.027703,0.245951,0.847868
1289,286,3.29934,-0.0350107,0.244814,0.845224
1297,278,3.29969,-0.0289712,0.24314,0.841866
1305,270,3.29919,-0.0336457,0.24145,0.83923
1313,262,3.29845,-0.032504,0.24081,0.835884
1321,254,3.30103,-0.0253892,0.237955,0.832881
1329,246,3.3005,-0.0327725,0.236788,0.830251
1337,238,3.30053,-0.0265245,0.23509,0.826893
1345,230,3.29979,-0.0364914,0.234435,0.824269
1353,222,3.29862,-0.0343018,0.233984,0.821282
1361,214,3.29948,-0.0278605,0.23135,0.81826
1369,206,3.29862,-0.0355485,0.230879,0.815285
1377,198,3.29846,-0.0341582,0.229684,0.812294
1385,190,3.29847,-0.0391552,0.227963,0.809653
1393,182,3.29806,-0.0351665,0.226761,0.806363
1401,174,3.29713,-0.033143,0.226072,0.803285
1409,166,3.29729,-0.0391093,0.224358,0.800418
1417,158,3.30009,-0.0316741,0.221411,0.797381
1425,150,3.29962,-0.0268399,0.219718,0.794287
1433,142,3.29909,-0.0331275,0.218955,0.790959
1441,134,3.29857,-0.0333429,0.218238,0.788324
1449,126,3.29896,-0.0281804,0.216677,0.785667
1457,118,3.29843,-0.0346136,0.215498,0.782342
1465,110,3.2989,-0.0294295,0.213497,0.779655
1473,102,3.2979,-0.0387733,0.212755,0.776265
1481,94,3.29817,-0.0334044,0.210993,0.773642
1489,86,3.29826,-0.037066,0.208716,0.770579
1497,78,3.29812,-0.0344885,0.207453,0.767952
1505,70,3.29724,-0.0332032,0.206684,0.764589
1513,62,3.29933,-0.0336291,0.203632,0.76112
1521,54,3.29946,-0.032026,0.202947,0.758167
1529,46,3.29975,-0.0359133,0.200577,0.754849
1537,38,3.29933,-0.0333504,0.199286,0.752193
1545,30,3.297879,-0.0428869,0.198469,0.748838
1553,22,3.2978,-0.0374708,0.196669,0.746141
1561,14,3.2985,-0.04408,0.194851,0.743126
1569,6,3.30057,-0.0373549,0.192232,0.739411
1572,3,3.29872,-0.0397151,0.192741,0.73845