File: hust_correlation_analysis/matrices/HUST_1-5_cycle_feature_matrix.csv
cycle_number,rul,voltage,current,capacity,charge_capacity
1,1973,3.31761,0.0419836,0.289579,1.04296
10,1964,3.30547,-0.012092,0.308871,1.00979
19,1955,3.30813,-0.0124468,0.30615,1.01842
28,1946,3.31024,-0.0122941,0.304034,1.022
37,1937,3.31219,-0.0105213,0.302254,1.02397
46,1928,3.31329,-0.00919649,0.301033,1.02546
55,1919,3.31361,-0.00988071,0.299867,1.02526
64,1910,3.31364,-0.0104728,0.299533,1.02507
73,1901,3.31349,-0.0111395,0.299138,1.02485
82,1892,3.31578,-0.00914648,0.298225,1.02427
91,1883,3.31536,-0.00980323,0.297531,1.02385
100,1874,3.31537,-0.0108677,0.297539,1.02324
109,1865,3.31624,-0.00916921,0.296731,1.02209
118,1856,3.31562,-0.0104472,0.297133,1.02115
127,1847,3.31527,-0.0109431,0.297131,1.02084
136,1838,3.31603,-0.00924646,0.296719,1.0195
145,1829,3.31596,-0.00984426,0.296732,1.01918
154,1820,3.31487,-0.0111539,0.297526,1.01826
163,1811,3.31602,-0.00928239,0.296813,1.01697
172,1802,3.31537,-0.00990071,0.297129,1.01642
181,1793,3.31478,-0.0110973,0.297534,1.01551
190,1784,3.31394,-0.0117135,0.297935,1.01496
199,1775,3.31526,-0.00994456,0.297124,1.01381
208,1766,3.31445,-0.0105335,0.297533,1.01329
217,1757,3.31385,-0.0118041,0.297939,1.01235
226,1748,3.31478,-0.0093609,0.297118,1.01157
235,1739,3.31389,-0.0100333,0.297787,1.01095
244,1730,3.31315,-0.0107093,0.297913,1.01035
253,1721,3.31264,-0.0118941,0.298328,1.00946
262,1712,3.31425,-0.010068,0.297126,1.00859
271,1703,3.31335,-0.0107919,0.297529,1.00796
280,1694,3.31263,-0.011956,0.297936,1.00688
289,1685,3.314,-0.0101404,0.297141,1.006
298,1676,3.31316,-0.0107899,0.297541,1.00539
307,1667,3.31272,-0.0120336,0.297964,1.00451
316,1658,3.31369,-0.00963672,0.297157,1.00373
325,1649,3.31315,-0.0107294,0.297569,1.00288
334,1640,3.3129,-0.011394,0.297579,1.00253
343,1631,3.31376,-0.00902929,0.296765,1.0017
352,1622,3.31331,-0.0102652,0.297184,1.0008
361,1613,3.31236,-0.0115163,0.298031,0.99975
370,1604,3.31157,-0.0121349,0.298439,0.999185
379,1595,3.31328,-0.00959701,0.297224,0.998663
388,1586,3.31214,-0.010928,0.298072,0.997573
397,1577,3.31168,-0.0115323,0.298049,0.997123
406,1568,3.31287,-0.00975369,0.297691,0.995849
415,1559,3.31219,-0.0103642,0.298112,0.995331
424,1550,3.31165,-0.0109891,0.298106,0.99494
433,1541,3.3113,-0.0121628,0.298535,0.994108
442,1532,3.31203,-0.00979404,0.297707,0.993186
451,1523,3.31123,-0.0104366,0.298132,0.992639
460,1514,3.31056,-0.0117036,0.298555,0.991702
469,1505,3.30974,-0.0124762,0.298976,0.991058
478,1496,3.31153,-0.00987008,0.297754,0.990563
487,1487,3.31073,-0.0110909,0.298175,0.989673
496,1478,3.30993,-0.0118519,0.298604,0.989055
505,1469,3.31148,-0.0098649,0.297819,0.988044
514,1460,3.31033,-0.0106156,0.298228,0.987364
523,1451,3.3102,-0.0117399,0.298143,0.986697
532,1442,3.30961,-0.0124403,0.298672,0.986186
541,1433,3.31059,-0.00993957,0.297844,0.985329
550,1424,3.3097,-0.0113131,0.298731,0.984244
559,1415,3.30955,-0.0124513,0.298732,0.983602
568,1406,3.31053,-0.00995603,0.297921,0.982776
577,1397,3.30961,-0.0106524,0.298366,0.982234
586,1388,3.30933,-0.011951,0.298803,0.981336
595,1379,3.3105,-0.0093324,0.297554,0.980746
604,1370,3.30997,-0.0106351,0.29799,0.979828
613,1361,3.30911,-0.0117032,0.298426,0.979279
622,1352,3.30833,-0.0126949,0.298864,0.978298
631,1343,3.30983,-0.0100601,0.297617,0.977733
640,1334,3.30907,-0.0114128,0.297972,0.97699
649,1325,3.30818,-0.0120339,0.298235,0.97623
658,1316,3.30954,-0.010075,0.297691,0.975132
667,1307,3.30913,-0.0107628,0.297687,0.974732
676,1298,3.30801,-0.0121931,0.298576,0.973576
685,1289,3.30938,-0.0101947,0.297776,0.972505
694,1280,3.3087,-0.0108565,0.297771,0.972106
703,1271,3.30774,-0.0121941,0.298204,0.971154
712,1262,3.3094,-0.0095382,0.296957,0.970588
721,1253,3.3085,-0.0108969,0.297396,0.969631
730,1244,3.30799,-0.0122728,0.297847,0.968688
739,1235,3.30921,-0.0102332,0.297044,0.967603
748,1226,3.30813,-0.0109744,0.297602,0.966976
757,1217,3.30717,-0.0123695,0.297931,0.966043
766,1208,3.30837,-0.0103959,0.297124,0.964891
775,1199,3.30769,-0.0110522,0.29711,0.964479
784,1190,3.30719,-0.0124036,0.297579,0.963627
793,1181,3.3082,-0.0103902,0.29677,0.962476
802,1172,3.30722,-0.010062,0.296762,0.961375
811,1163,3.30888,-0.0136768,0.295514,0.959792
820,1154,3.30771,-0.0144906,0.295961,0.959141
829,1145,3.3066,-0.0175632,0.296859,0.95836
838,1136,3.30784,-0.0138659,0.295603,0.957069
847,1127,3.30731,-0.0117716,0.295038,0.955864
856,1118,3.3062,-0.0131882,0.295592,0.954874
865,1109,3.30731,-0.0129208,0.295246,0.953881
874,1100,3.30626,-0.0176164,0.29478,0.952644
883,1091,3.30719,-0.0156192,0.29397,0.951469
892,1082,3.30638,-0.0171201,0.29443,0.950525
901,1073,3.30545,-0.016749,0.294431,0.949455
910,1064,3.3072,-0.0128852,0.292707,0.948383
919,1055,3.30629,-0.0132394,0.293168,0.946776
928,1046,3.30736,-0.00947337,0.292142,0.945459
937,1037,3.30602,-0.0125933,0.292783,0.944389
946,1028,3.30728,-0.015748,0.291544,0.943367
955,1019,3.30637,-0.0154224,0.29154,0.942257
964,1010,3.3052,-0.0168503,0.291988,0.941291
973,1001,3.30625,-0.014856,0.291174,0.940115
982,992,3.30575,-0.0134257,0.290844,0.938546
991,983,3.30706,-0.00960127,0.289462,0.937264
1000,974,3.3058,-0.0178754,0.289922,0.936402
1009,965,3.30688,-0.00896866,0.289099,0.935173
1018,956,3.30592,-0.0155747,0.289105,0.9341
1027,947,3.30722,-0.0124177,0.287848,0.932476
1036,938,3.30628,-0.0120649,0.287827,0.931346
1045,929,3.30483,-0.015235,0.28874,0.930581
1054,920,3.30637,-0.0097121,0.287255,0.929077
1063,911,3.30483,-0.0118534,0.287918,0.92757
1072,902,3.30542,-0.0169227,0.287115,0.926343
1081,893,3.30473,-0.0182202,0.287571,0.925517
1090,884,3.30611,-0.0133159,0.28584,0.923657
1099,875,3.30519,-0.0129609,0.285722,0.922566
1108,866,3.30655,-0.00977501,0.284577,0.921175
1117,857,3.30524,-0.0112202,0.285025,0.91997
1126,848,3.3058,-0.0161816,0.284211,0.918819
1135,839,3.30493,-0.0164888,0.284211,0.917411
1144,830,3.30579,-0.0134624,0.283397,0.915463
1153,821,3.30468,-0.0130626,0.283393,0.914406
1162,812,3.30566,-0.00996105,0.282586,0.912527
1171,803,3.30465,-0.0183776,0.282582,0.91186
1180,794,3.30553,-0.0163401,0.281769,0.910675
1189,785,3.30448,-0.0148815,0.281772,0.908919
1198,776,3.30575,-0.0117157,0.280501,0.90721
1207,767,3.30457,-0.0131487,0.280954,0.906294
1216,758,3.30561,-0.011137,0.280145,0.905096
1225,749,3.30448,-0.0185824,0.280141,0.903695
1234,740,3.30506,-0.0154412,0.279319,0.901786
1243,731,3.30377,-0.0169204,0.279768,0.900831
1252,722,3.30498,-0.0129602,0.278493,0.899516
1261,713,3.3043,-0.0115147,0.278046,0.897918
1270,704,3.30462,-0.0174141,0.277679,0.896169
1279,695,3.30336,-0.0188281,0.278131,0.895261
1288,686,3.30413,-0.0174742,0.277322,0.893739
1297,677,3.30336,-0.0159486,0.276855,0.892125
1306,668,3.30487,-0.0119867,0.275597,0.890853
1315,659,3.30338,-0.0123235,0.275782,0.889327
1324,650,3.30364,-0.0183184,0.275205,0.887572
1333,641,3.30542,-0.0130888,0.273498,0.885877
1342,632,3.30402,-0.0127941,0.273486,0.884717
1351,623,3.30517,-0.0113238,0.272674,0.883228
1360,614,3.30386,-0.0171773,0.272686,0.88149
1369,605,3.30487,-0.0157704,0.271854,0.879899
1378,596,3.30348,-0.0172799,0.272309,0.878979
1387,587,3.30511,-0.0120534,0.270591,0.877212
1396,578,3.30343,-0.0143721,0.271497,0.875692
1405,569,3.30445,-0.0102407,0.27022,0.874402
1414,560,3.30322,-0.0180086,0.270225,0.873001
1423,551,3.30416,-0.0129101,0.268951,0.870919
1432,542,3.30517,-0.0107275,0.26813,0.869759
1441,533,3.30381,-0.0185212,0.268132,0.868347
1450,524,3.30463,-0.0170962,0.267297,0.866764
1459,515,3.30289,-0.0194578,0.2682,0.865229
1468,506,3.30411,-0.0160905,0.266923,0.86356
1477,497,3.30294,-0.0175555,0.267375,0.862666
1486,488,3.30411,-0.0122966,0.265645,0.85934
1495,479,3.30257,-0.0127612,0.266817,0.859127
1504,470,3.30354,-0.0187767,0.265291,0.857706
1513,461,3.30402,-0.0155107,0.264455,0.855742
1522,452,3.30293,-0.0158589,0.264454,0.854311
1531,443,3.30415,-0.0116439,0.263295,0.853033
1540,434,3.30286,-0.0120348,0.263169,0.851551
1549,425,3.30321,-0.0106384,0.2628,0.84979
1558,416,3.30175,-0.0129348,0.263257,0.848508
1567,407,3.30277,-0.0171753,0.261989,0.846835
1576,398,3.30368,-0.0118405,0.260695,0.84478
1585,389,3.30261,-0.0121666,0.260691,0.843355
1594,380,3.30291,-0.0184433,0.26033,0.841657
1603,371,3.30168,-0.0188245,0.260437,0.840196
1612,362,3.30294,-0.0133468,0.258586,0.838363
1621,353,3.30361,-0.0119849,0.258224,0.836621
1630,344,3.3025,-0.0122883,0.258221,0.83521
1639,335,3.30285,-0.0185679,0.257853,0.833521
1648,326,3.30211,-0.0181134,0.257398,0.832658
1657,317,3.30204,-0.016719,0.257017,0.830867
1666,308,3.30336,-0.0132365,0.255734,0.829181
1675,299,3.30222,-0.0135132,0.255734,0.827788
1684,290,3.3026,-0.0187003,0.255015,0.825541
1693,281,3.30154,-0.0170828,0.254443,0.823908
1702,272,3.30214,-0.0136817,0.254334,0.821995
1711,263,3.30279,-0.0109189,0.252787,0.819759
1720,254,3.30136,-0.0192119,0.252787,0.818589
1729,245,3.30197,-0.0158061,0.251991,0.8164
1738,236,3.30299,-0.012199,0.250674,0.814729
1747,227,3.30179,-0.0204812,0.250686,0.813401
1756,218,3.30295,-0.0168814,0.249402,0.811715
1765,209,3.30296,-0.0183289,0.249463,0.809701
1774,200,3.30214,-0.0146505,0.248556,0.807917
1783,191,3.30274,-0.0111113,0.247734,0.806057
1792,182,3.30297,-0.016399,0.246899,0.803799
1801,173,3.3015,-0.0188177,0.247342,0.802523
1810,164,3.3027,-0.0138538,0.245603,0.800349
1819,155,3.30323,-0.0103674,0.244772,0.798412
1828,146,3.30136,-0.0209046,0.245217,0.797165
1837,137,3.30177,-0.0202199,0.24484,0.795095
1846,128,3.30314,-0.0152698,0.243237,0.792889
1855,119,3.30376,-0.00964578,0.241816,0.790792
1864,110,3.30163,-0.0190631,0.242257,0.78879
1873,101,3.30269,-0.0161427,0.240976,0.786792
1882,92,3.30326,-0.0133533,0.240139,0.784531
1891,83,3.30383,-0.0179251,0.238852,0.782846
1900,74,3.30183,-0.0192277,0.239297,0.780836
1909,65,3.30265,-0.0143514,0.238015,0.778394
1918,56,3.30336,-0.0196399,0.236732,0.776426
1927,47,3.30405,-0.0155119,0.235445,0.773624
1936,38,3.30481,-0.0127131,0.234619,0.771408
1945,29,3.30234,-0.0223408,0.235069,0.769412
1954,20,3.30325,-0.0194497,0.23376,0.767323
1963,11,3.30384,-0.0152683,0.232475,0.764543
1971,3,3.30398,-0.0208407,0.231644,0.762338