File: hust_correlation_analysis/matrices/HUST_6-5_cycle_feature_matrix.csv
cycle_number,rul,voltage,current,capacity,charge_capacity
1,2180,3.32782,-0.0203823,0.26969,1.00183
11,2170,3.31719,-0.0215916,0.272307,0.994275
21,2160,3.31627,-0.0245867,0.2723,0.992996
31,2150,3.31807,-0.0231299,0.270806,0.991822
41,2140,3.31778,-0.0238794,0.2708,0.991486
51,2130,3.31915,-0.0217998,0.269642,0.990566
61,2120,3.31819,-0.0235648,0.269735,0.989522
71,2110,3.31927,-0.0207085,0.268216,0.988916
81,2100,3.31847,-0.0222008,0.268486,0.98826
91,2090,3.32096,-0.0193323,0.266557,0.987963
101,2080,3.32045,-0.0201772,0.266981,0.987312
111,2070,3.32011,-0.0215412,0.26698,0.986726
121,2060,3.3195,-0.0221481,0.266981,0.986466
131,2050,3.32086,-0.0198212,0.265911,0.985369
141,2040,3.32066,-0.0207424,0.26591,0.984972
151,2030,3.32086,-0.0214759,0.265908,0.984657
161,2020,3.32047,-0.0215558,0.266007,0.984628
171,2010,3.31945,-0.0230078,0.26634,0.983733
181,2000,3.32107,-0.0202863,0.264841,0.983085
191,1990,3.3215,-0.0201666,0.264409,0.983395
201,1980,3.32051,-0.020882,0.264846,0.982854
211,1970,3.32064,-0.02195,0.264847,0.982392
221,1960,3.32075,-0.022775,0.265033,0.981794
231,1950,3.31926,-0.0231693,0.265279,0.981607
241,1940,3.32048,-0.0233722,0.264602,0.981797
251,1930,3.31973,-0.0242048,0.265035,0.981185
261,1920,3.31997,-0.0247836,0.264921,0.981187
271,1910,3.32062,-0.0219927,0.263773,0.980272
281,1900,3.32114,-0.0220184,0.263528,0.980264
291,1890,3.32,-0.0228545,0.263953,0.979612
301,1880,3.32139,-0.0196472,0.262266,0.979404
311,1870,3.32131,-0.0210302,0.262263,0.978813
321,1860,3.32089,-0.0216969,0.262259,0.978517
331,1850,3.32059,-0.0224623,0.262253,0.978172
341,1840,3.32033,-0.0231549,0.262727,0.977886
351,1830,3.32203,-0.0203236,0.260752,0.977262
361,1820,3.32204,-0.0211281,0.260749,0.9769
371,1810,3.32169,-0.0225672,0.260751,0.976284
381,1800,3.32125,-0.0226064,0.260749,0.976262
391,1790,3.32365,-0.0196646,0.258817,0.975918
401,1780,3.32345,-0.0210898,0.258819,0.975312
411,1770,3.3225,-0.0218112,0.259246,0.974753
421,1760,3.32227,-0.0225764,0.259247,0.974426
431,1750,3.32243,-0.0231642,0.258819,0.974402
441,1740,3.32396,-0.0203341,0.257318,0.973772
451,1730,3.32416,-0.0210916,0.257321,0.973466
461,1720,3.32336,-0.0226224,0.257741,0.972518
471,1710,3.3234,-0.0225088,0.257314,0.972807
481,1700,3.32488,-0.0203902,0.256242,0.971646
491,1690,3.3252,-0.020712,0.255819,0.971761
501,1680,3.32384,-0.0218887,0.256237,0.970976
511,1670,3.32475,-0.023087,0.256005,0.970464
521,1660,3.32376,-0.0231884,0.255448,0.970646
531,1650,3.32538,-0.0204405,0.254733,0.969739
541,1640,3.32481,-0.0211942,0.254735,0.969395
551,1630,3.3251,-0.021879,0.254311,0.969345
561,1620,3.3246,-0.0225939,0.254311,0.969017
571,1610,3.32565,-0.0236736,0.254081,0.968557
581,1600,3.32645,-0.020477,0.252805,0.96806
591,1590,3.32555,-0.0219468,0.253227,0.967172
601,1580,3.32599,-0.0222439,0.252805,0.967277
611,1570,3.32495,-0.0234348,0.253309,0.96648
621,1560,3.32724,-0.0204343,0.251303,0.966181
631,1550,3.32672,-0.021147,0.2513,0.965846
641,1540,3.32562,-0.0228454,0.252128,0.964592
651,1530,3.32633,-0.0234298,0.251714,0.964587
661,1520,3.32801,-0.0208677,0.250534,0.963837
671,1510,3.3273,-0.0217253,0.250214,0.963468
681,1500,3.32652,-0.0231495,0.250824,0.962375
691,1490,3.32697,-0.0238907,0.25071,0.962292
701,1480,3.32696,-0.0245099,0.24999,0.962253
711,1470,3.327865,-0.0224835,0.249319,0.960779
721,1460,3.32786,-0.0233165,0.249318,0.958934
731,1450,3.327355,-0.023938,0.249316,0.960122
741,1440,3.32739,-0.0246574,0.248901,0.960034
751,1430,3.32895,-0.0218096,0.2474,0.9594
761,1420,3.328802,-0.022427,0.247398,0.959111
771,1410,3.3287,-0.0239089,0.247713,0.95846
781,1400,3.32756,-0.0246608,0.247806,0.957862
791,1390,3.32853,-0.0209033,0.246716,0.956157
801,1380,3.32925,-0.0233816,0.246301,0.956512
811,1370,3.32842,-0.0276489,0.245889,0.955682
821,1360,3.32756,-0.0237924,0.246709,0.954837
831,1350,3.3294,-0.0243407,0.244699,0.95399
841,1340,3.32876,-0.025186,0.244383,0.953613
851,1330,3.33021,-0.020261,0.243467,0.953496
861,1320,3.32901,-0.0235876,0.243568,0.952331
871,1310,3.33065,-0.0224793,0.242473,0.951905
881,1300,3.32946,-0.0241822,0.242879,0.9509
891,1290,3.32906,-0.0303085,0.242473,0.950465
901,1280,3.33002,-0.0283132,0.241777,0.948953
911,1270,3.33048,-0.0269989,0.240971,0.948798
921,1260,3.3298,-0.0277469,0.240963,0.948437
931,1250,3.33032,-0.023503,0.239674,0.947162
941,1240,3.33101,-0.0233527,0.239463,0.946009
951,1230,3.33063,-0.0244958,0.239457,0.945478
961,1220,3.33142,-0.0214239,0.23817,0.944923
971,1210,3.33229,-0.0208213,0.237561,0.944199
981,1200,3.3315,-0.0288684,0.23756,0.94392
991,1190,3.3303,-0.0284927,0.237957,0.942618
1001,1180,3.33253,-0.0256233,0.236061,0.942203
1011,1170,3.33168,-0.0251708,0.236062,0.941178
1021,1160,3.33063,-0.0280144,0.236859,0.94069
1031,1150,3.33165,-0.0221961,0.236023,0.93949
1041,1140,3.33277,-0.0227162,0.234563,0.939109
1051,1130,3.33184,-0.0242086,0.23504,0.938222
1061,1120,3.33107,-0.0238122,0.234953,0.937152
1071,1110,3.33249,-0.0282984,0.233532,0.936539
1081,1100,3.33286,-0.0224914,0.232917,0.935337
1091,1090,3.33093,-0.0275549,0.233451,0.934398
1101,1080,3.3321,-0.028349,0.232735,0.934128
1111,1070,3.33189,-0.0281396,0.232734,0.932981
1121,1060,3.33108,-0.0277265,0.232732,0.931926
1131,1050,3.33226,-0.02362,0.231232,0.93058
1141,1040,3.33191,-0.02517,0.231231,0.929919
1151,1030,3.33304,-0.0210761,0.230119,0.92832
1161,1020,3.33201,-0.0217253,0.230119,0.928038
1171,1010,3.33268,-0.0159382,0.229568,0.926771
1181,1000,3.33253,-0.0285511,0.229394,0.925959
1191,990,3.33171,-0.0263381,0.228996,0.924668
1201,980,3.33131,-0.029876,0.229393,0.92415
1211,970,3.33167,-0.0257931,0.22827,0.922521
1221,960,3.33312,-0.0212326,0.226554,0.921548
1231,950,3.33374,-0.0203893,0.225979,0.920934
1241,940,3.33111,-0.0244039,0.227336,0.919709
1251,930,3.33251,-0.0201872,0.225819,0.918365
1261,920,3.33211,-0.0298,0.226017,0.917291
1271,910,3.33137,-0.02947,0.226018,0.916192
1281,900,3.3317,-0.0253181,0.22469,0.914822
1291,890,3.33176,-0.0268713,0.224891,0.913923
1301,880,3.33303,-0.0234101,0.223375,0.912261
1311,870,3.33175,-0.0250012,0.223764,0.911342
1321,860,3.33098,-0.0246725,0.223764,0.910262
1331,850,3.33258,-0.0299826,0.222243,0.909364
1341,840,3.33099,-0.030494,0.222629,0.907675
1351,830,3.33187,-0.0270969,0.221501,0.905757
1361,820,3.33095,-0.0306744,0.221888,0.905243
1371,810,3.33222,-0.0263187,0.220363,0.90393
1381,800,3.3309,-0.0249123,0.220359,0.902044
1391,790,3.33304,-0.022607,0.218835,0.901102
1401,780,3.33075,-0.0327448,0.219607,0.899653
1411,770,3.33112,-0.0286799,0.218467,0.898229
1421,760,3.33041,-0.0310159,0.218853,0.896764
1431,750,3.33202,-0.0286586,0.217319,0.895819
1441,740,3.33024,-0.0291984,0.217708,0.894142
1451,730,3.3316,-0.0256078,0.216167,0.892446
1461,720,3.33244,-0.0242825,0.215406,0.890613
1471,710,3.33102,-0.0317993,0.215403,0.889567
1481,700,3.33189,-0.0287892,0.214246,0.887401
1491,690,3.33161,-0.0272003,0.213251,0.885875
1501,680,3.33092,-0.0251164,0.212866,0.88451
1511,670,3.33116,-0.0258106,0.212476,0.882833
1521,660,3.33229,-0.0205291,0.210923,0.880577
1531,650,3.33051,-0.0310561,0.211308,0.879336
1541,640,3.33139,-0.0254645,0.209754,0.877223
1551,630,3.32954,-0.0259328,0.210139,0.875562
1561,620,3.33081,-0.0243953,0.208969,0.874033
1571,610,3.32985,-0.0272908,0.209585,0.872414
1581,600,3.32964,-0.0318122,0.208176,0.870716
1591,590,3.33027,-0.0302078,0.207,0.869209
1601,580,3.3294,-0.0296425,0.207233,0.866998
1611,570,3.33027,-0.0280405,0.206052,0.865224
1621,560,3.33156,-0.0263892,0.204868,0.863712
1631,550,3.32852,-0.0328023,0.205252,0.860531
1641,540,3.32865,-0.0308225,0.204206,0.859115
1651,530,3.32888,-0.0292857,0.2034,0.85732
1661,520,3.32952,-0.0265209,0.202207,0.855017
1671,510,3.33048,-0.0225928,0.200619,0.853384
1681,500,3.32799,-0.0284558,0.202159,0.851344
1691,490,3.32933,-0.0224066,0.200178,0.849547
1701,480,3.32723,-0.0349187,0.201208,0.847324
1711,470,3.32707,-0.031168,0.200016,0.845587
1721,460,3.32867,-0.0283087,0.198401,0.843294
1731,450,3.3269,-0.0274173,0.198397,0.841166
1741,440,3.32727,-0.0343867,0.197569,0.839393
1751,430,3.3272,-0.0337283,0.19674,0.837257
1761,420,3.3273,-0.0332566,0.196513,0.834765
1771,410,3.3254,-0.0324212,0.19629,0.832622
1781,400,3.32547,-0.0316202,0.195453,0.830513
1791,390,3.32631,-0.0255348,0.193828,0.828222
1801,380,3.32715,-0.0335506,0.192594,0.826543
1811,370,3.32685,-0.030735,0.191741,0.823911
1821,360,3.3248,-0.0320764,0.192124,0.821949
1831,350,3.32496,-0.0289965,0.19088,0.819668
1841,340,3.32578,-0.0258856,0.189631,0.8174
1851,330,3.3261,-0.0320228,0.188377,0.815057
1861,320,3.32594,-0.0290447,0.187506,0.812276
1871,310,3.32314,-0.0351338,0.188673,0.810762
1881,300,3.32411,-0.0296623,0.187017,0.80834
1891,290,3.32538,-0.0198421,0.185389,0.805524
1901,280,3.32433,-0.0258049,0.18525,0.803561
1911,270,3.32259,-0.0366008,0.185384,0.801592
1921,260,3.32223,-0.0359245,0.184749,0.7994
1931,250,3.3232,-0.0307456,0.183069,0.796804
1941,240,3.32325,-0.0299527,0.182168,0.794631
1951,230,3.32365,-0.0274018,0.181267,0.79184
1961,220,3.32303,-0.0357917,0.180355,0.789782
1971,210,3.324,-0.0305855,0.178656,0.787177
1981,200,3.32171,-0.0345351,0.179436,0.785601
1991,190,3.3215,-0.0314525,0.178515,0.782701
2001,180,3.32202,-0.0361951,0.176801,0.779994
2011,170,3.32177,-0.0375918,0.176262,0.778051
2021,160,3.32282,-0.0321907,0.174544,0.775491
2031,150,3.32401,-0.0264289,0.172821,0.77302
2041,140,3.32082,-0.0309228,0.173589,0.771014
2051,130,3.32068,-0.0407619,0.173036,0.768354
2061,120,3.32189,-0.0372855,0.171297,0.766359
2071,110,3.32269,-0.0313223,0.169556,0.763751
2081,100,3.32301,-0.0305068,0.168819,0.761709
2091,90,3.32358,-0.0373619,0.167222,0.75937
2101,80,3.32104,-0.0425735,0.167992,0.757204
2111,70,3.32391,-0.0340644,0.164909,0.753126
2121,60,3.32194,-0.0356621,0.165243,0.752582
2131,50,3.32282,-0.0307454,0.163476,0.749793
2141,40,3.3233,-0.0402318,0.162468,0.747602
2151,30,3.32394,-0.0340375,0.160695,0.745181
2161,20,3.32534,-0.0316089,0.158918,0.742827
2171,10,3.32599,-0.0385207,0.157514,0.740532
2178,3,3.32436,-0.0390217,0.157733,0.739208