File: hust_correlation_analysis/matrices/HUST_8-6_cycle_feature_matrix.csv
cycle_number,rul,voltage,current,capacity,charge_capacity
1,2367,3.31943,-0.00691503,0.302159,1.05207
12,2356,3.30816,-0.00814581,0.305443,1.04444
23,2345,3.30744,-0.0105427,0.305857,1.04292
34,2334,3.30876,-0.00937631,0.304587,1.0416
45,2323,3.3077,-0.0107033,0.304996,1.04062
56,2312,3.30884,-0.0094492,0.304029,1.03938
67,2301,3.30935,-0.0116311,0.3036,1.03878
78,2290,3.31014,-0.00857132,0.302495,1.03798
89,2279,3.31024,-0.0110019,0.302648,1.03722
100,2268,3.31074,-0.00775504,0.301757,1.03635
111,2257,3.30966,-0.0134396,0.302766,1.03565
122,2246,3.31036,-0.0100936,0.302168,1.03481
133,2235,3.31068,-0.0119297,0.301524,1.03459
144,2224,3.31093,-0.00833741,0.300826,1.03389
155,2213,3.31039,-0.00903643,0.301532,1.03331
166,2202,3.31019,-0.0103103,0.301239,1.03259
177,2191,3.31008,-0.0106918,0.301241,1.03239
188,2180,3.31125,-0.00835528,0.299996,1.03177
199,2169,3.31137,-0.0089618,0.299986,1.0314
210,2158,3.31066,-0.00963847,0.300401,1.03082
221,2147,3.31066,-0.0101884,0.299989,1.03072
232,2136,3.31023,-0.0120262,0.300539,1.03005
243,2125,3.31048,-0.0122924,0.300121,1.03006
254,2114,3.3102,-0.0129324,0.300119,1.02968
265,2103,3.31128,-0.0111823,0.298813,1.02879
276,2092,3.31151,-0.0117893,0.298873,1.02844
287,2081,3.3116,-0.0125961,0.298478,1.02821
298,2070,3.31117,-0.0128388,0.298467,1.02804
309,2059,3.31177,-0.00930538,0.297884,1.02709
320,2048,3.31358,-0.00713243,0.296514,1.02656
331,2037,3.31268,-0.00775206,0.29652,1.02622
342,2026,3.3128,-0.00903788,0.296642,1.02531
353,2015,3.31249,-0.00952023,0.296517,1.02522
364,2004,3.31217,-0.010517,0.296647,1.02449
375,1993,3.31356,-0.00817196,0.295404,1.02365
386,1982,3.3136,-0.00899645,0.295402,1.0234
397,1971,3.31203,-0.0141634,0.296513,1.02306
408,1960,3.3128,-0.0101283,0.295407,1.02278
419,1949,3.31248,-0.0107968,0.295401,1.02239
430,1938,3.31404,-0.00904001,0.29457,1.02126
441,1927,3.31315,-0.00969931,0.29456,1.02085
452,1916,3.31319,-0.0102997,0.294557,1.0205
463,1905,3.31284,-0.0108639,0.294557,1.02016
474,1894,3.31468,-0.00844234,0.292909,1.0198
485,1883,3.31445,-0.00905521,0.292909,1.01943
496,1872,3.31421,-0.0103463,0.29331,1.01851
507,1861,3.31339,-0.0108766,0.293306,1.0182
518,1850,3.3152,-0.00825609,0.292063,1.01773
529,1839,3.31496,-0.0096651,0.292067,1.01693
540,1828,3.31445,-0.00977513,0.292062,1.01686
551,1817,3.31377,-0.010918,0.292478,1.01606
562,1806,3.31587,-0.00843695,0.29083,1.0157
573,1795,3.31575,-0.00901165,0.290829,1.01538
584,1784,3.31492,-0.0103664,0.291246,1.01444
595,1773,3.31522,-0.0108121,0.290842,1.01437
606,1762,3.31699,-0.00843177,0.289597,1.01376
617,1751,3.3166,-0.00909401,0.289591,1.01337
628,1740,3.31575,-0.00971325,0.289871,1.01429
639,1729,3.31565,-0.010316,0.289986,1.01245
650,1718,3.31752,-0.00852642,0.288745,1.0115
661,1707,3.31711,-0.00900769,0.288745,1.00978
672,1696,3.31661,-0.0103919,0.288904,1.01045
683,1685,3.31604,-0.0110286,0.289157,1.0099
694,1674,3.318,-0.00806806,0.287508,1.0083
705,1663,3.31783,-0.00914418,0.287507,1.00917
716,1652,3.31771,-0.00969118,0.287587,1.00883
727,1641,3.31773,-0.0102982,0.287105,1.00868
738,1630,3.31686,-0.010968,0.287581,1.00809
749,1619,3.31829,-0.00848145,0.286242,1.0075
760,1608,3.31792,-0.00979875,0.286649,1.00657
771,1597,3.31744,-0.0103845,0.286647,1.00646
782,1586,3.31917,-0.00795462,0.285402,1.00561
793,1575,3.31857,-0.00910983,0.285811,1.00479
804,1564,3.31868,-0.0097236,0.285809,1.00443
815,1553,3.31834,-0.0103945,0.285812,1.00405
826,1542,3.31962,-0.00850767,0.284572,1.00313
837,1531,3.31949,-0.00916223,0.284566,1.00274
848,1520,3.31853,-0.0104293,0.284964,1.00182
859,1509,3.31818,-0.0110827,0.285111,1.00142
870,1498,3.31935,-0.00925287,0.284122,1.0003
881,1487,3.31898,-0.00981901,0.284124,0.999985
892,1476,3.31849,-0.0111282,0.284528,0.999046
903,1465,3.31918,-0.00875721,0.283669,0.998171
914,1454,3.31919,-0.00991101,0.283675,0.997528
925,1443,3.31856,-0.0105376,0.283674,0.997148
936,1432,3.32017,-0.00867105,0.282429,0.996217
947,1421,3.3194,-0.00989479,0.283507,0.995134
958,1410,3.31895,-0.0105428,0.28324,0.994807
969,1399,3.32041,-0.00866392,0.28198,0.993828
980,1388,3.3195,-0.0098706,0.282391,0.992976
991,1377,3.31867,-0.0106061,0.282786,0.992337
1002,1366,3.31961,-0.00880447,0.281937,0.991159
1013,1355,3.31972,-0.00933562,0.281536,0.991021
1024,1344,3.31882,-0.0107142,0.281933,0.990042
1035,1333,3.3201,-0.00879057,0.281172,0.988961
1046,1322,3.31966,-0.00941427,0.281085,0.988566
1057,1311,3.31889,-0.0106964,0.281498,0.987685
1068,1300,3.31845,-0.0113532,0.281488,0.98728
1079,1289,3.31902,-0.00949191,0.281195,0.985964
1090,1278,3.31877,-0.0107731,0.28105,0.985233
1101,1267,3.32016,-0.00890974,0.279809,0.984281
1112,1256,3.3202,-0.0100747,0.279951,0.983599
1123,1245,3.3192,-0.0113376,0.280202,0.982684
1134,1234,3.32022,-0.00947527,0.279361,0.981538
1145,1223,3.31975,-0.0101203,0.279358,0.981166
1156,1212,3.3201,-0.00813856,0.27843,0.980279
1167,1201,3.32043,-0.00951458,0.278511,0.979288
1178,1190,3.31928,-0.0102477,0.278914,0.978676
1189,1179,3.31931,-0.0114543,0.278577,0.977948
1200,1168,3.32014,-0.00953453,0.278056,0.976819
1211,1157,3.31939,-0.0108212,0.278461,0.975912
1222,1146,3.32091,-0.00838717,0.277198,0.975203
1233,1135,3.3193,-0.0103224,0.278143,0.973765
1244,1124,3.31916,-0.00935201,0.277595,0.973171
1255,1113,3.32017,-0.013876,0.276343,0.972247
1266,1102,3.31941,-0.0135656,0.276348,0.971153
1277,1091,3.31858,-0.014902,0.276755,0.968791
1288,1080,3.31975,-0.0112944,0.275499,0.96894
1299,1069,3.31938,-0.010962,0.275498,0.967869
1310,1058,3.32076,-0.00739036,0.273845,0.966757
1321,1047,3.3192,-0.0158331,0.274643,0.965284
1332,1036,3.32127,-0.0105611,0.272745,0.964091
1343,1025,3.32028,-0.011989,0.273002,0.963088
1354,1014,3.32103,-0.00679583,0.271748,0.961432
1365,1003,3.32063,-0.0145375,0.271328,0.960856
1376,992,3.32026,-0.0141606,0.271044,0.959767
1387,981,3.32028,-0.0113248,0.270465,0.957864
1398,970,3.31963,-0.0110413,0.270471,0.956759
1409,959,3.31932,-0.00910675,0.269922,0.955674
1420,948,3.3187,-0.016077,0.270025,0.95396
1431,937,3.32084,-0.0122667,0.267962,0.953086
1442,926,3.3192,-0.0109684,0.268362,0.951087
1453,915,3.32034,-0.00740779,0.266697,0.949728
1464,904,3.3198,-0.0152938,0.26711,0.949023
1475,893,3.32068,-0.0140579,0.266255,0.947492
1486,882,3.31831,-0.0144766,0.267058,0.945645
1497,871,3.31943,-0.0114689,0.2658,0.943988
1508,860,3.31826,-0.0151088,0.2654,0.941992
1519,849,3.31918,-0.0120949,0.26415,0.940324
1530,838,3.31973,-0.00986467,0.263297,0.938077
1541,827,3.31813,-0.0101708,0.263675,0.936401
1552,816,3.31893,-0.014902,0.262818,0.935246
1563,805,3.31896,-0.0119715,0.26196,0.933353
1574,794,3.31836,-0.0111894,0.261562,0.931403
1585,783,3.31906,-0.00992889,0.261102,0.929695
1596,772,3.3199,-0.00688968,0.259845,0.928021
1607,761,3.31742,-0.014679,0.26064,0.925829
1618,750,3.31851,-0.0106471,0.259398,0.923619
1629,739,3.31909,-0.00754314,0.258124,0.921745
1640,728,3.31847,-0.0138224,0.25806,0.919472
1651,717,3.31699,-0.0130892,0.258059,0.917304
1662,706,3.31722,-0.0125463,0.257597,0.915205
1673,695,3.31785,-0.0151435,0.255932,0.913042
1684,684,3.3175,-0.0147155,0.25586,0.910687
1695,673,3.3165,-0.0131154,0.255462,0.909171
1706,662,3.31609,-0.0134269,0.255664,0.906204
1717,651,3.31625,-0.0160855,0.254131,0.904088
1728,640,3.31651,-0.0137386,0.253272,0.901855
1739,629,3.31744,-0.009421,0.251606,0.899677
1750,618,3.31708,-0.00792119,0.251137,0.896794
1761,607,3.31655,-0.013182,0.250677,0.894057
1772,596,3.31753,-0.0106281,0.249409,0.892073
1783,585,3.31498,-0.0106954,0.2498,0.889279
1794,574,3.31589,-0.00995503,0.248934,0.887454
1805,563,3.31516,-0.0154336,0.248464,0.884628
1816,552,3.31543,-0.0112124,0.247199,0.882203
1827,541,3.3153,-0.01647,0.246319,0.87965
1838,530,3.31582,-0.0121579,0.245056,0.877272
1849,519,3.31539,-0.0123902,0.244978,0.874579
1860,508,3.31505,-0.016063,0.244111,0.871624
1871,497,3.31548,-0.0152463,0.243624,0.869799
1882,486,3.31531,-0.0118399,0.242362,0.86653
1893,475,3.31585,-0.0110358,0.241491,0.864985
1904,464,3.31383,-0.011003,0.241477,0.862396
1915,453,3.31561,-0.0111264,0.239343,0.859206
1926,442,3.31539,-0.0147181,0.238067,0.856466
1937,431,3.31385,-0.0146635,0.238058,0.853915
1948,420,3.31363,-0.0141226,0.237978,0.851637
1959,409,3.31413,-0.0133581,0.237209,0.848322
1970,398,3.31368,-0.0117425,0.236603,0.846884
1981,387,3.3138,-0.0146517,0.235331,0.844524
1992,376,3.31397,-0.0127137,0.234446,0.841975
2003,365,3.31427,-0.00908521,0.233571,0.838979
2014,354,3.31407,-0.0157967,0.232686,0.837171
2025,343,3.31433,-0.0120808,0.231403,0.834362
2036,332,3.314,-0.0102712,0.230919,0.831571
2047,321,3.31199,-0.0114371,0.231315,0.829557
2058,310,3.31181,-0.0152872,0.230428,0.826576
2069,299,3.31234,-0.0145031,0.229539,0.824748
2080,288,3.31223,-0.0127199,0.229046,0.821921
2091,277,3.31211,-0.0165891,0.227761,0.819142
2102,266,3.3123,-0.0139227,0.226868,0.816898
2113,255,3.3125,-0.0112591,0.225974,0.814641
2124,244,3.31299,-0.0151276,0.224803,0.811894
2135,233,3.31291,-0.0144852,0.224194,0.809802
2146,222,3.31275,-0.0107097,0.223305,0.806784
2157,211,3.31311,-0.014478,0.22202,0.804093
2168,200,3.31078,-0.017711,0.222807,0.802258
2179,189,3.31097,-0.0150798,0.221917,0.799987
2190,178,3.31092,-0.0190659,0.220628,0.797483
2201,167,3.31184,-0.016233,0.219326,0.795188
2212,156,3.31155,-0.0143245,0.218835,0.792435
2223,145,3.31328,-0.00565941,0.216334,0.789711
2234,134,3.31234,-0.0147504,0.216241,0.787934
2245,123,3.31213,-0.0107169,0.215036,0.785195
2256,112,3.31004,-0.0141924,0.216133,0.783092
2267,101,3.31053,-0.0172969,0.214444,0.780909
2278,90,3.31092,-0.0152969,0.213544,0.778337
2289,79,3.3111,-0.0125336,0.21264,0.776075
2300,68,3.31115,-0.0178563,0.211735,0.773853
2311,57,3.31324,-0.0109374,0.209594,0.771416
2322,46,3.31093,-0.0122957,0.210074,0.769339
2333,35,3.31051,-0.0164293,0.209066,0.766367
2344,24,3.3116,-0.0115769,0.207385,0.764103
2355,13,3.3118,-0.00994212,0.20685,0.7624
2365,3,3.31137,-0.0090399,0.206421,0.760402