File: hust_correlation_analysis/matrices/HUST_3-8_cycle_feature_matrix.csv
cycle_number,rul,voltage,current,capacity,charge_capacity
1,2344,3.32722,0.0145234,0.268475,1.02767
12,2333,3.31487,-0.0218538,0.280188,1.01245
23,2322,3.31845,-0.0212975,0.277447,1.0198
34,2311,3.32066,-0.0205414,0.275336,1.02144
45,2300,3.32122,-0.0210122,0.274365,1.02197
56,2289,3.32255,-0.0191063,0.272621,1.02102
67,2278,3.32246,-0.0204578,0.272616,1.02039
78,2267,3.32347,-0.0184996,0.271155,1.01946
89,2256,3.32265,-0.0205201,0.271571,1.01831
100,2245,3.32262,-0.0217237,0.271554,1.0177
111,2234,3.32415,-0.0204161,0.270529,1.0163
122,2223,3.32263,-0.0219035,0.27134,1.01507
133,2212,3.32384,-0.0200432,0.270714,1.01362
144,2201,3.32273,-0.0213444,0.271119,1.01274
155,2190,3.32162,-0.0220212,0.271528,1.01216
166,2179,3.32302,-0.0207496,0.270911,1.01046
177,2168,3.32153,-0.021575,0.271327,1.00983
188,2157,3.32224,-0.0196525,0.270707,1.0084
199,2146,3.32124,-0.0211046,0.27155,1.00722
210,2135,3.31996,-0.0218666,0.271964,1.0066
221,2124,3.32138,-0.0198472,0.270908,1.00541
232,2113,3.3214,-0.0204203,0.270908,1.00517
243,2102,3.32002,-0.0218615,0.271761,1.00401
254,2091,3.3197,-0.0226024,0.272729,1.00337
265,2080,3.32041,-0.020095,0.271092,1.0023
276,2069,3.3198,-0.0213347,0.271504,1.00145
287,2058,3.32022,-0.0218356,0.27107,1.00148
298,2047,3.32096,-0.0199135,0.270459,1.00004
309,2036,3.32038,-0.0213581,0.270878,0.999128
320,2025,3.3187,-0.0221329,0.271312,0.998529
331,2014,3.32111,-0.0201002,0.270251,0.997357
342,2003,3.32023,-0.0207698,0.2708,0.997024
353,1992,3.3192,-0.0215716,0.270684,0.99645
364,1981,3.3188,-0.0228944,0.271112,0.995608
375,1970,3.32025,-0.0202057,0.269628,0.994984
386,1959,3.31889,-0.0210335,0.27049,0.994084
397,1948,3.31873,-0.0223102,0.270912,0.99323
408,1937,3.31762,-0.0232484,0.271366,0.992629
419,1926,3.31899,-0.0211201,0.270297,0.991451
430,1915,3.31879,-0.0218569,0.270738,0.990888
441,1904,3.31691,-0.0226551,0.271177,0.990273
452,1893,3.31708,-0.0234441,0.271607,0.989636
463,1882,3.31783,-0.0213939,0.27056,0.988494
474,1871,3.31761,-0.0221451,0.270998,0.987896
485,1860,3.31666,-0.0228434,0.271566,0.987596
496,1849,3.31648,-0.0235951,0.271437,0.987004
507,1838,3.31781,-0.0207071,0.270473,0.986351
518,1827,3.31785,-0.0221952,0.270351,0.985464
529,1816,3.31652,-0.0229644,0.270786,0.984846
540,1805,3.31652,-0.023657,0.270785,0.984549
551,1794,3.31729,-0.0208527,0.269718,0.983665
562,1783,3.31703,-0.0224722,0.270601,0.982419
573,1772,3.31556,-0.0231493,0.270618,0.982183
584,1761,3.31565,-0.0238801,0.271049,0.981566
595,1750,3.31674,-0.0210323,0.269621,0.980903
606,1739,3.31636,-0.0224934,0.269988,0.980115
617,1728,3.31561,-0.0233272,0.270414,0.979427
628,1717,3.3144,-0.0241494,0.270887,0.978883
639,1706,3.31608,-0.0219443,0.26981,0.977708
650,1695,3.31481,-0.0226964,0.270259,0.977111
661,1684,3.31433,-0.023454,0.270271,0.976845
672,1673,3.31581,-0.0211544,0.269193,0.975709
683,1662,3.31473,-0.0222084,0.269645,0.974992
694,1651,3.31446,-0.0229356,0.270376,0.974412
705,1640,3.31487,-0.0236664,0.27009,0.974094
716,1629,3.31568,-0.0215385,0.269002,0.972859
727,1618,3.31526,-0.0222019,0.268999,0.972577
738,1607,3.3155,-0.0229093,0.268994,0.972278
749,1596,3.31361,-0.024522,0.269913,0.971099
760,1585,3.31469,-0.0216708,0.268818,0.970118
771,1574,3.31458,-0.0224407,0.268823,0.969839
782,1563,3.31418,-0.0238877,0.269286,0.968994
793,1552,3.31542,-0.021734,0.268192,0.967754
804,1541,3.31392,-0.0225593,0.268635,0.967075
815,1530,3.31389,-0.0232951,0.269074,0.966823
826,1519,3.31383,-0.0239948,0.268915,0.966506
837,1508,3.31505,-0.0218411,0.267551,0.965288
848,1497,3.31352,-0.0234906,0.268474,0.964071
859,1486,3.31273,-0.0241945,0.268463,0.963754
870,1475,3.31512,-0.0219281,0.266906,0.962846
881,1464,3.31487,-0.0227197,0.267355,0.962197
892,1453,3.31354,-0.0242874,0.267826,0.961328
903,1442,3.312,-0.0251822,0.268288,0.960675
914,1431,3.31376,-0.0229367,0.267178,0.959416
925,1420,3.31322,-0.0237078,0.267195,0.959179
936,1409,3.31236,-0.0252595,0.267653,0.958266
947,1398,3.31382,-0.0232003,0.267016,0.956655
958,1387,3.31341,-0.0246324,0.267025,0.956132
969,1376,3.31161,-0.025462,0.267484,0.955491
980,1365,3.31331,-0.0223836,0.265911,0.954853
991,1354,3.31259,-0.0239783,0.266386,0.953956
1002,1343,3.31159,-0.0255781,0.266843,0.953019
1013,1332,3.31357,-0.0223382,0.265261,0.952439
1024,1321,3.31266,-0.024207,0.266207,0.95115
1035,1310,3.31205,-0.025702,0.266199,0.950551
1046,1299,3.3129,-0.0233466,0.265109,0.949409
1057,1288,3.31157,-0.024274,0.265573,0.948719
1068,1277,3.3107,-0.0259429,0.266466,0.947753
1079,1266,3.31241,-0.0236781,0.264938,0.946549
1090,1255,3.31199,-0.0251143,0.265506,0.945963
1101,1244,3.31105,-0.0260028,0.265667,0.945289
1112,1233,3.3124,-0.0237631,0.264282,0.944039
1123,1222,3.31156,-0.025379,0.264765,0.943157
1134,1211,3.31274,-0.0231558,0.263654,0.941899
1145,1200,3.31128,-0.024722,0.264132,0.94101
1156,1189,3.30942,-0.0264663,0.265084,0.939722
1167,1178,3.31087,-0.0241682,0.263975,0.938509
1178,1167,3.31025,-0.0249017,0.263965,0.938201
1189,1156,3.30989,-0.0264606,0.264539,0.93757
1200,1145,3.31156,-0.0241493,0.262829,0.936299
1211,1134,3.31039,-0.0258764,0.263302,0.935335
1222,1123,3.31187,-0.0234686,0.262169,0.934301
1233,1112,3.31009,-0.0253024,0.26316,0.93285
1244,1101,3.30969,-0.0268504,0.263142,0.932217
1255,1090,3.3108,-0.0245131,0.262005,0.930927
1266,1079,3.30968,-0.0261741,0.262504,0.930043
1277,1068,3.31098,-0.0237575,0.261359,0.928763
1288,1057,3.30959,-0.0254994,0.26185,0.927813
1299,1046,3.31065,-0.0231574,0.260714,0.926527
1310,1035,3.30902,-0.0257663,0.261703,0.924977
1321,1024,3.30772,-0.0274077,0.262193,0.924063
1332,1013,3.30916,-0.025011,0.261059,0.92281
1343,1002,3.30767,-0.0267852,0.261647,0.920549
1354,991,3.30906,-0.0244172,0.260411,0.920562
1365,980,3.30798,-0.0269014,0.260912,0.919373
1376,969,3.30928,-0.0245149,0.259761,0.916568
1387,958,3.30818,-0.0262375,0.26053,0.917134
1398,947,3.30695,-0.027962,0.260766,0.916216
1409,936,3.30837,-0.0262149,0.259608,0.914645
1420,925,3.30716,-0.0280728,0.260108,0.913663
1431,914,3.30832,-0.0256225,0.258951,0.912356
1442,903,3.30662,-0.0283556,0.259864,0.910739
1453,892,3.30792,-0.0259408,0.258793,0.909407
1464,881,3.30658,-0.0285214,0.259311,0.908453
1475,870,3.30766,-0.0260077,0.258135,0.90687
1486,859,3.30593,-0.0277748,0.258629,0.905885
1497,848,3.30743,-0.0260897,0.257475,0.90432
1508,837,3.30593,-0.0279396,0.257975,0.903319
1519,826,3.30684,-0.0262646,0.257312,0.901371
1530,815,3.30585,-0.0280534,0.257403,0.900767
1541,804,3.30725,-0.026418,0.256229,0.899139
1552,793,3.30538,-0.0292912,0.257167,0.897488
1563,782,3.3068,-0.0266383,0.256001,0.896235
1574,771,3.3045,-0.0294771,0.257044,0.894626
1585,760,3.30591,-0.0278357,0.255861,0.892976
1596,749,3.3062,-0.0262416,0.255204,0.890992
1607,738,3.30464,-0.0280773,0.255737,0.89007
1618,727,3.30567,-0.0263389,0.254545,0.888428
1629,716,3.30395,-0.0292999,0.255601,0.886789
1640,705,3.30553,-0.0275451,0.254416,0.885173
1651,694,3.30387,-0.030334,0.254941,0.882492
1662,683,3.30378,-0.0287501,0.254277,0.881858
1673,672,3.30404,-0.0269337,0.253622,0.879953
1684,661,3.30297,-0.0298962,0.254136,0.878552
1695,650,3.30412,-0.0280998,0.252923,0.87688
1706,639,3.30189,-0.0310898,0.254014,0.875263
1717,628,3.30336,-0.0293561,0.252802,0.873565
1728,617,3.30401,-0.0275084,0.251577,0.871888
1739,606,3.30119,-0.0305199,0.252665,0.87023
1750,595,3.30199,-0.0297467,0.252015,0.86795
1761,584,3.3019,-0.0279826,0.251334,0.865975
1772,573,3.30017,-0.0310532,0.251888,0.864558
1783,562,3.30058,-0.0292264,0.250661,0.862856
1794,551,3.30152,-0.0283211,0.249978,0.860509
1805,540,3.29911,-0.0324299,0.251088,0.858492
1816,529,3.29998,-0.0306013,0.249846,0.856772
1827,518,3.30027,-0.0298455,0.249171,0.854378
1838,507,3.30086,-0.0290867,0.248495,0.851985
1849,496,3.29819,-0.0332009,0.249631,0.850003
1860,485,3.29845,-0.0324576,0.248956,0.84759
1871,474,3.29934,-0.0315848,0.247699,0.845542
1882,463,3.29827,-0.0308178,0.247588,0.84274
1893,452,3.29854,-0.0301119,0.246903,0.840272
1904,441,3.29988,-0.036763,0.245051,0.83833
1915,430,3.29659,-0.0411675,0.24621,0.836286
1926,419,3.29612,-0.0403429,0.245519,0.833838
1937,408,3.29748,-0.0324749,0.243073,0.831246
1948,397,3.29863,-0.0315569,0.239697,0.82893
1959,386,3.29846,-0.0288649,0.238759,0.826298
1970,375,3.2982,-0.0357961,0.237453,0.823904
1981,364,3.29968,-0.0278537,0.235016,0.821295
1992,353,3.29959,-0.0359745,0.233722,0.818625
2003,342,3.29538,-0.0432289,0.235411,0.816502
2014,331,3.29651,-0.0351159,0.232955,0.813899
2025,320,3.29647,-0.0407735,0.231642,0.810852
2036,309,3.29683,-0.0370044,0.22976,0.808876
2047,298,3.29617,-0.0346404,0.228991,0.805736
2058,287,3.2966,-0.0401873,0.227702,0.801787
2069,276,3.29679,-0.037657,0.225769,0.800422
2080,265,3.29594,-0.0351567,0.225207,0.797319
2091,254,3.29662,-0.0378769,0.222505,0.794684
2102,243,3.29611,-0.0382478,0.221708,0.791908
2113,232,3.29591,-0.0437261,0.219795,0.789325
2124,221,3.29731,-0.0353629,0.217319,0.786702
2135,210,3.29583,-0.0357788,0.217097,0.783522
2146,199,3.29628,-0.0415521,0.215116,0.780863
2157,188,3.29662,-0.0359651,0.213381,0.778193
2168,177,3.29644,-0.0417589,0.211233,0.775727
2179,166,3.29631,-0.0374041,0.209835,0.772133
2190,155,3.29587,-0.0345858,0.20843,0.769456
2201,144,3.29966,-0.0348251,0.204538,0.766361
2212,133,3.29823,-0.0322384,0.203647,0.763212
2223,122,3.29884,-0.0392349,0.20168,0.760277
2234,111,3.29771,-0.0348447,0.200245,0.758334
2245,100,3.29811,-0.0331712,0.198805,0.753898
2256,89,3.2974,-0.0422271,0.197355,0.7512
2267,78,3.2968,-0.0376703,0.195893,0.747813
2278,67,3.29745,-0.0406645,0.193372,0.745182
2289,56,3.29698,-0.0360206,0.191382,0.742199
2300,45,3.2999,-0.0435085,0.188427,0.738784
2311,34,3.30034,-0.0327299,0.185907,0.735447
2322,23,3.29885,-0.0463422,0.184915,0.73242
2333,12,3.29951,-0.0384157,0.182398,0.729522
2342,3,3.2992,-0.0461461,0.180887,0.726122