File: hust_correlation_analysis/matrices/HUST_1-8_cycle_feature_matrix.csv
cycle_number,rul,voltage,current,capacity,charge_capacity
1,2287,3.32053,-0.0130826,0.299073,1.01829
12,2276,3.31003,-0.0143769,0.302601,1.01063
23,2265,3.31188,-0.0137653,0.301256,1.00909
34,2254,3.31151,-0.0151152,0.300789,1.0086
45,2243,3.31093,-0.0163818,0.300776,1.00796
56,2232,3.31257,-0.0142802,0.299428,1.0071
67,2221,3.31268,-0.0157523,0.299425,1.00638
78,2210,3.31166,-0.0164586,0.299423,1.00603
89,2199,3.31344,-0.0144928,0.298084,1.00513
100,2188,3.31371,-0.0151067,0.298282,1.00504
111,2177,3.31308,-0.0163954,0.298087,1.00421
122,2166,3.31455,-0.0138973,0.296741,1.00354
133,2155,3.31443,-0.0144458,0.296742,1.00328
144,2144,3.31428,-0.0151111,0.296736,1.00293
155,2133,3.31391,-0.0158551,0.296736,1.00257
166,2122,3.31561,-0.0131435,0.295404,1.00205
177,2111,3.31453,-0.0157469,0.296321,1.00295
188,2100,3.31589,-0.013908,0.295413,1.00172
199,2089,3.31554,-0.0144642,0.295411,1.00143
210,2078,3.31502,-0.0151528,0.295398,1.00106
221,2067,3.31474,-0.0158714,0.295407,1.00072
232,2056,3.31461,-0.0164264,0.295499,1.00043
243,2045,3.31408,-0.0165219,0.295389,1.00033
254,2034,3.3164,-0.0137274,0.294032,1.00003
265,2023,3.31562,-0.0146288,0.294041,0.999345
276,2012,3.31512,-0.0153227,0.294047,0.99903
287,2001,3.31539,-0.0158306,0.293602,0.998978
298,1990,3.31516,-0.0165834,0.2936,0.997291
309,1979,3.31734,-0.0145233,0.292269,0.997753
320,1968,3.31686,-0.0146074,0.29226,0.997681
331,1957,3.31651,-0.0152249,0.292268,0.997404
342,1946,3.31605,-0.0158961,0.292264,0.997056
353,1935,3.31784,-0.0138732,0.290937,0.996192
364,1924,3.31793,-0.0139475,0.29093,0.996143
375,1913,3.31731,-0.0145946,0.29074,0.995819
386,1902,3.31754,-0.0158681,0.29094,0.995201
397,1891,3.31698,-0.0165279,0.290931,0.994836
408,1880,3.31886,-0.0138834,0.289624,0.994346
419,1869,3.31851,-0.0145443,0.289594,0.993933
430,1858,3.31804,-0.0151838,0.289613,0.99367
441,1847,3.31808,-0.0158478,0.289615,0.993343
452,1836,3.31753,-0.0165215,0.289606,0.992957
463,1825,3.31937,-0.0138367,0.288281,0.992438
474,1814,3.31903,-0.0145889,0.28826,0.991981
485,1803,3.31882,-0.015314,0.288261,0.991627
496,1792,3.31833,-0.0159518,0.288254,0.991281
507,1781,3.31812,-0.0165986,0.288256,0.990952
518,1770,3.31979,-0.0139645,0.286921,0.990361
529,1759,3.31978,-0.0152931,0.286919,0.989683
540,1748,3.31953,-0.0158631,0.286937,0.989456
551,1737,3.31899,-0.0165882,0.286913,0.989008
562,1726,3.32065,-0.0139216,0.2856,0.9885
573,1715,3.32041,-0.0146048,0.286215,0.988083
584,1704,3.31993,-0.0160127,0.286033,0.987217
595,1693,3.31956,-0.0165726,0.286027,0.986917
606,1682,3.32121,-0.0140064,0.284693,0.986281
617,1671,3.32073,-0.0146161,0.284697,0.98599
628,1660,3.32015,-0.0160029,0.285327,0.98507
639,1649,3.31957,-0.0166767,0.285126,0.984732
650,1638,3.3221,-0.0139683,0.283354,0.984357
661,1627,3.32122,-0.0153596,0.283787,0.983434
672,1616,3.32044,-0.0160875,0.284217,0.981568
683,1605,3.32058,-0.0167222,0.283791,0.982753
694,1594,3.3219,-0.0148136,0.282881,0.981552
705,1583,3.3215,-0.015379,0.282878,0.981255
716,1572,3.32155,-0.0160835,0.282881,0.980899
727,1561,3.32328,-0.014023,0.281552,0.980031
738,1550,3.32219,-0.014857,0.282179,0.979363
749,1539,3.32232,-0.0154289,0.281535,0.979262
760,1528,3.32154,-0.0168486,0.28197,0.978328
771,1517,3.32318,-0.0141787,0.280633,0.977725
782,1506,3.32275,-0.0148059,0.280635,0.977427
793,1495,3.3223,-0.0161859,0.281061,0.976484
804,1484,3.32358,-0.0135951,0.27972,0.975843
815,1473,3.32273,-0.0149076,0.280144,0.974924
826,1462,3.3225,-0.0156199,0.280159,0.974623
837,1451,3.32194,-0.0169287,0.280154,0.975305
848,1440,3.32389,-0.0143674,0.27889,0.973252
859,1429,3.32299,-0.0156546,0.279246,0.972667
870,1418,3.32278,-0.0168769,0.279235,0.971744
881,1407,3.32431,-0.0143512,0.278335,0.970883
892,1396,3.32322,-0.0156796,0.27876,0.969988
903,1385,3.3225,-0.0164098,0.278757,0.969601
914,1374,3.32407,-0.0143304,0.27742,0.968685
925,1363,3.32316,-0.015812,0.277843,0.967711
936,1352,3.32319,-0.0164575,0.27785,0.967404
947,1341,3.32487,-0.0144087,0.276506,0.966447
958,1330,3.32359,-0.0158633,0.27737,0.96529
969,1319,3.32333,-0.0164414,0.27693,0.96518
980,1308,3.32494,-0.0144279,0.275583,0.964209
991,1297,3.32452,-0.0150543,0.276021,0.963696
1002,1286,3.32335,-0.016569,0.276638,0.962698
1013,1275,3.32399,-0.0146169,0.276045,0.961267
1024,1264,3.32351,-0.0159505,0.275964,0.960618
1035,1253,3.32298,-0.017363,0.275966,0.959652
1046,1242,3.32475,-0.015288,0.275059,0.958755
1057,1231,3.32363,-0.0167803,0.275486,0.957778
1068,1220,3.32494,-0.0146544,0.274578,0.956671
1079,1209,3.32358,-0.0154949,0.275003,0.955991
1090,1198,3.32339,-0.0167615,0.274571,0.955577
1101,1187,3.32464,-0.0147793,0.273653,0.954357
1112,1176,3.32384,-0.016143,0.274068,0.953387
1123,1165,3.32508,-0.0140937,0.273168,0.95227
1134,1154,3.32409,-0.0137788,0.273158,0.951147
1145,1143,3.32241,-0.0230555,0.274115,0.949645
1156,1132,3.32427,-0.0138304,0.272676,0.948696
1167,1121,3.32339,-0.020641,0.272676,0.947846
1178,1110,3.32496,-0.0165901,0.270878,0.946559
1189,1099,3.32365,-0.0163793,0.271316,0.945219
1200,1088,3.32471,-0.0149945,0.270392,0.943646
1211,1077,3.32456,-0.0144983,0.270146,0.942896
1222,1066,3.32301,-0.0231042,0.270391,0.941951
1233,1055,3.32427,-0.0192393,0.26904,0.940641
1244,1044,3.32373,-0.0195702,0.269036,0.939224
1255,1033,3.32439,-0.015665,0.26811,0.937693
1266,1022,3.32387,-0.0171682,0.26798,0.936959
1277,1011,3.32547,-0.0131584,0.266321,0.93588
1288,1000,3.32363,-0.0225126,0.267177,0.934372
1299,989,3.32508,-0.0186747,0.266013,0.933
1310,978,3.32458,-0.0182531,0.265456,0.932168
1321,967,3.3252,-0.0152233,0.264895,0.93001
1332,956,3.32453,-0.0219683,0.264456,0.92918
1343,945,3.32299,-0.0234199,0.264889,0.928278
1354,934,3.32419,-0.0184481,0.263523,0.926198
1365,923,3.32345,-0.0198191,0.263503,0.925445
1376,912,3.32435,-0.0166857,0.262593,0.923577
1387,901,3.3231,-0.0163373,0.26259,0.922505
1398,890,3.32449,-0.0202915,0.26123,0.920866
1409,879,3.32314,-0.023614,0.262724,0.920114
1420,868,3.32395,-0.0204518,0.261356,0.918182
1431,857,3.32535,-0.0182347,0.2598,0.917254
1442,846,3.32383,-0.0186448,0.26023,0.915603
1453,835,3.32531,-0.0134746,0.258432,0.91379
1464,824,3.3233,-0.0231065,0.259305,0.912317
1475,813,3.32458,-0.0191656,0.257929,0.910933
1486,802,3.32367,-0.0201987,0.257936,0.909215
1497,791,3.32492,-0.0142505,0.256125,0.907707
1508,780,3.32299,-0.0166388,0.25698,0.906141
1519,769,3.32383,-0.0225296,0.256047,0.904684
1530,758,3.32417,-0.0193084,0.255104,0.902738
1541,747,3.32285,-0.0215064,0.255533,0.901494
1552,736,3.32409,-0.0163996,0.254168,0.899182
1563,725,3.32432,-0.0131471,0.253394,0.89746
1574,714,3.32278,-0.0235305,0.253653,0.895925
1585,703,3.32403,-0.0182485,0.252019,0.894097
1596,692,3.32194,-0.0206097,0.252705,0.892575
1607,681,3.32311,-0.0173372,0.251335,0.890861
1618,670,3.32345,-0.0139834,0.250387,0.888953
1629,659,3.3217,-0.0226791,0.250815,0.886965
1640,648,3.32257,-0.0192512,0.248958,0.885321
1651,637,3.32349,-0.0146957,0.248061,0.882924
1662,626,3.3219,-0.0170195,0.248491,0.881654
1673,615,3.32156,-0.024118,0.248404,0.8793
1684,604,3.32264,-0.0205792,0.247023,0.877675
1695,593,3.32305,-0.0179409,0.246069,0.875402
1706,582,3.32165,-0.016377,0.245633,0.873818
1717,571,3.32147,-0.0215967,0.245116,0.871304
1728,560,3.32166,-0.0209866,0.24459,0.869174
1739,549,3.32281,-0.0154267,0.242769,0.867369
1750,538,3.32117,-0.0166544,0.243195,0.86385
1761,527,3.32107,-0.0238298,0.242675,0.863271
1772,516,3.32091,-0.0212281,0.242147,0.860756
1783,505,3.3214,-0.0184942,0.241187,0.858517
1794,494,3.32024,-0.0175316,0.240757,0.85666
1805,483,3.31965,-0.0249572,0.240655,0.854257
1816,472,3.32053,-0.0220632,0.239257,0.852284
1827,461,3.32026,-0.0194875,0.238729,0.849761
1838,450,3.32068,-0.0147471,0.237328,0.847311
1849,439,3.31798,-0.0259819,0.238192,0.845521
1860,428,3.31861,-0.0212553,0.236785,0.843058
1871,417,3.31909,-0.0185322,0.235818,0.840788
1882,406,3.31933,-0.0157104,0.234847,0.838538
1893,395,3.31872,-0.024029,0.234744,0.835854
1904,384,3.31913,-0.0191743,0.233332,0.833416
1915,373,3.31954,-0.0163356,0.232542,0.83118
1926,362,3.31727,-0.0175595,0.232627,0.829197
1937,351,3.31681,-0.0239195,0.232249,0.826348
1948,340,3.31716,-0.0211276,0.23127,0.824077
1959,329,3.31767,-0.019032,0.230289,0.821501
1970,318,3.31806,-0.0161931,0.229307,0.819227
1981,307,3.31821,-0.023854,0.228772,0.817165
1992,296,3.3185,-0.0188077,0.227335,0.813433
2003,285,3.31577,-0.0210328,0.22835,0.812116
2014,274,3.31555,-0.0266144,0.22722,0.809899
2025,263,3.31533,-0.0246544,0.226673,0.806993
2036,252,3.31566,-0.0218212,0.225679,0.804729
2047,241,3.31609,-0.0187755,0.224687,0.802505
2058,230,3.31707,-0.0157567,0.223249,0.800479
2069,219,3.31639,-0.022372,0.22269,0.797642
2080,208,3.31635,-0.0195555,0.222142,0.795112
2091,197,3.31459,-0.0207985,0.222129,0.793364
2102,186,3.31441,-0.0187265,0.222187,0.790497
2113,175,3.3145,-0.0268229,0.22102,0.788417
2124,164,3.31469,-0.023817,0.22001,0.786123
2135,153,3.31514,-0.0216206,0.218999,0.783517
2146,142,3.31595,-0.0162623,0.217555,0.781144
2157,131,3.31227,-0.029097,0.218882,0.779006
2168,120,3.31325,-0.028138,0.217869,0.777181
2179,109,3.3137,-0.0205373,0.215957,0.774557
2190,98,3.31337,-0.0199116,0.215837,0.77215
2201,87,3.31366,-0.026797,0.214818,0.769578
2212,76,3.3138,-0.0236378,0.21379,0.767286
2223,65,3.31173,-0.0250609,0.214241,0.765319
2234,54,3.31205,-0.021955,0.212705,0.763014
2245,43,3.31279,-0.0187934,0.212187,0.760736
2256,32,3.31266,-0.0273384,0.211613,0.758624
2267,21,3.31317,-0.0241388,0.210582,0.756349
2278,10,3.31336,-0.0210007,0.209546,0.754039
2285,3,3.31223,-0.021241,0.20954,0.752704