File: hust_correlation_analysis/matrices/HUST_2-3_cycle_feature_matrix.csv
cycle_number,rul,voltage,current,capacity,charge_capacity
1,1753,3.30908,0.0315151,0.335093,1.04698
9,1745,3.29807,-0.0135184,0.352223,1.02019
17,1737,3.30227,-0.0109028,0.347919,1.02808
25,1729,3.3042,-0.0102444,0.345393,1.03195
33,1721,3.30529,-0.0113039,0.343794,1.03429
41,1713,3.30655,-0.0107471,0.34245,1.03515
49,1705,3.30773,-0.0100192,0.341478,1.03611
57,1697,3.30787,-0.0106667,0.340667,1.03584
65,1689,3.30785,-0.0106625,0.340222,1.03602
73,1681,3.30795,-0.0117782,0.339789,1.03548
81,1673,3.30961,-0.00952253,0.338672,1.03492
89,1665,3.30946,-0.010099,0.338668,1.03454
97,1657,3.30942,-0.0111242,0.338676,1.03391
105,1649,3.30893,-0.0116967,0.338666,1.03351
113,1641,3.30994,-0.00956338,0.337994,1.03273
121,1633,3.30942,-0.0106766,0.338431,1.03185
129,1625,3.30856,-0.0113043,0.338862,1.03126
137,1617,3.31065,-0.00893248,0.337323,1.03095
145,1609,3.31031,-0.0100897,0.337769,1.03007
153,1601,3.30966,-0.0106823,0.338208,1.02954
161,1593,3.30922,-0.0112321,0.338649,1.02904
169,1585,3.31007,-0.0095443,0.337978,1.02792
177,1577,3.30989,-0.0100568,0.338075,1.02759
185,1569,3.30921,-0.0107271,0.338412,1.02697
193,1561,3.30853,-0.0114038,0.338954,1.02638
201,1553,3.30832,-0.0119093,0.338495,1.02606
209,1545,3.30966,-0.00958896,0.338183,1.02537
217,1537,3.30942,-0.0101372,0.338165,1.02493
225,1529,3.30866,-0.0107427,0.33859,1.02433
233,1521,3.308,-0.0114197,0.339108,1.0237
241,1513,3.30773,-0.0119152,0.339019,1.02338
249,1505,3.30884,-0.0102886,0.338353,1.02224
257,1497,3.30816,-0.0108979,0.3388,1.0217
265,1489,3.30758,-0.0115281,0.339599,1.02111
273,1481,3.30757,-0.012016,0.338805,1.021
281,1473,3.3087,-0.00976745,0.338128,1.02022
289,1465,3.30828,-0.0103359,0.338565,1.01966
297,1457,3.30834,-0.0114925,0.338682,1.01899
305,1449,3.30793,-0.0114497,0.338575,1.01899
313,1441,3.30738,-0.0120417,0.339015,1.01843
321,1433,3.30863,-0.010174,0.338366,1.01748
329,1425,3.30791,-0.0109753,0.338804,1.0167
337,1417,3.30736,-0.0116365,0.339973,1.01618
345,1409,3.30754,-0.0120552,0.33882,1.01613
353,1401,3.30853,-0.00976105,0.338145,1.01535
361,1393,3.30809,-0.0104063,0.338602,1.0148
369,1385,3.30743,-0.0110362,0.338716,1.01426
377,1377,3.30677,-0.0116471,0.339503,1.01368
385,1369,3.30668,-0.0122766,0.339516,1.01332
393,1361,3.30787,-0.00989086,0.338855,1.01263
401,1353,3.30729,-0.0105348,0.339307,1.01206
409,1345,3.30713,-0.0111294,0.339411,1.0117
417,1337,3.30643,-0.0117044,0.339764,1.01117
425,1329,3.30619,-0.0122484,0.339836,1.01078
433,1321,3.30736,-0.0100279,0.339094,1.00999
441,1313,3.30725,-0.0105679,0.339085,1.00962
449,1305,3.30667,-0.0111826,0.339535,1.00905
457,1297,3.30636,-0.0117815,0.33955,1.00872
465,1289,3.30574,-0.012366,0.340002,1.00817
473,1281,3.3073,-0.00999787,0.338873,1.00758
481,1273,3.30677,-0.0106404,0.339346,1.00707
489,1265,3.30652,-0.0111746,0.339338,1.0067
497,1257,3.30592,-0.011848,0.339784,1.00609
505,1249,3.30559,-0.0124393,0.339804,1.00578
513,1241,3.30691,-0.0100074,0.339132,1.00505
521,1233,3.30665,-0.0106123,0.339131,1.00467
529,1225,3.30615,-0.011226,0.339719,1.0042
537,1217,3.30567,-0.0118032,0.340807,1.00369
545,1209,3.3053,-0.0123799,0.340083,1.00334
553,1201,3.3072,-0.00990847,0.338967,1.00285
561,1193,3.30704,-0.0104567,0.338971,1.00254
569,1185,3.30614,-0.0111614,0.33943,1.00192
577,1177,3.30562,-0.0118187,0.340624,1.00135
585,1169,3.30669,-0.00948925,0.339232,1.00056
593,1161,3.3065,-0.010073,0.339224,1.00018
601,1153,3.30604,-0.0112707,0.340059,0.999292
609,1145,3.30572,-0.0118394,0.339624,0.999055
617,1137,3.305088,-0.0125378,0.340254,0.998322
625,1129,3.30675,-0.0100586,0.339031,0.997803
633,1121,3.30596,-0.0106517,0.339496,0.997267
641,1113,3.30511,-0.0113922,0.340065,0.996648
649,1105,3.3046,-0.0125685,0.340447,0.995797
657,1097,3.30558,-0.0101486,0.339784,0.993608
665,1089,3.30519,-0.010801,0.339781,0.994622
673,1081,3.305,-0.0113743,0.339769,0.994249
681,1073,3.30472,-0.0119566,0.339773,0.99391
689,1065,3.30578,-0.00960406,0.339115,0.993108
697,1057,3.30544,-0.010814,0.339591,0.992216
705,1049,3.30521,-0.0114079,0.339591,0.990431
713,1041,3.30516,-0.0119259,0.339584,0.991532
721,1033,3.30566,-0.00964574,0.339292,0.990681
729,1025,3.30493,-0.0108357,0.33939,0.989751
737,1017,3.30431,-0.0116,0.339858,0.989087
745,1009,3.30369,-0.0127115,0.340358,0.988339
753,1001,3.30529,-0.0102759,0.339204,0.987739
761,993,3.30452,-0.0110421,0.339676,0.987016
769,985,3.3045,-0.012088,0.339696,0.986468
777,977,3.30336,-0.0127756,0.340167,0.985859
785,969,3.30455,-0.0103658,0.339505,0.985049
793,961,3.30373,-0.0115935,0.339995,0.984177
801,953,3.30318,-0.0128405,0.340475,0.98352
809,945,3.30467,-0.0103254,0.33934,0.982694
817,937,3.30451,-0.010927,0.340077,0.98235
825,929,3.30297,-0.0123134,0.340305,0.981173
833,921,3.30249,-0.0128841,0.3403,0.98081
841,913,3.30411,-0.0104243,0.339162,0.980213
849,905,3.30309,-0.0117009,0.340133,0.979126
857,897,3.30269,-0.0123414,0.340127,0.978706
865,889,3.30309,-0.0111334,0.339978,0.97706
873,881,3.30235,-0.0117809,0.34046,0.976496
881,873,3.30201,-0.0124872,0.340454,0.976046
889,865,3.30378,-0.0103964,0.339317,0.975229
897,857,3.30226,-0.0118312,0.340294,0.974021
905,849,3.3017,-0.0124553,0.340291,0.973635
913,841,3.30303,-0.0105908,0.339635,0.972718
921,833,3.30226,-0.0118081,0.340137,0.971878
929,825,3.30108,-0.0125316,0.340633,0.97103
937,817,3.30233,-0.0106559,0.339997,0.969928
945,809,3.30172,-0.0119495,0.340494,0.968993
953,801,3.30053,-0.013266,0.340976,0.968006
961,793,3.30167,-0.0113629,0.340342,0.966886
969,785,3.30107,-0.0126276,0.340844,0.966007
977,777,3.3001,-0.0133392,0.3409,0.965531
985,769,3.30069,-0.0115298,0.340678,0.964133
993,761,3.3006,-0.0126919,0.34068,0.963461
1001,753,3.30124,-0.0108639,0.340024,0.962216
1009,745,3.30029,-0.0115767,0.340519,0.96162
1017,737,3.29968,-0.0134362,0.341043,0.960427
1025,729,3.29992,-0.0116072,0.340893,0.958995
1033,721,3.2992,-0.0129887,0.341403,0.958033
1041,713,3.29984,-0.0110112,0.340774,0.956936
1049,705,3.29948,-0.0122296,0.340773,0.95623
1057,697,3.30033,-0.0103042,0.340129,0.955044
1065,689,3.29894,-0.0123864,0.341156,0.953545
1073,681,3.29776,-0.0136647,0.341672,0.952627
1081,673,3.29867,-0.0117285,0.341039,0.951482
1089,665,3.29793,-0.0136862,0.341553,0.950182
1097,657,3.29871,-0.0116917,0.340923,0.949038
1105,649,3.29768,-0.0131124,0.34144,0.94805
1113,641,3.2979,-0.0119133,0.341324,0.94628
1121,633,3.29639,-0.0139763,0.342384,0.944804
1129,625,3.29715,-0.0119866,0.341746,0.943623
1137,617,3.29572,-0.0139748,0.342273,0.942315
1145,609,3.29674,-0.0126893,0.342172,0.940592
1153,601,3.29721,-0.0113205,0.341542,0.939059
1161,593,3.29549,-0.0134637,0.342608,0.937519
1169,585,3.29655,-0.0120989,0.341982,0.935982
1177,577,3.29438,-0.0142585,0.343043,0.934405
1185,569,3.29499,-0.0129001,0.34241,0.932832
1193,561,3.29587,-0.0108486,0.341785,0.931662
1201,553,3.29405,-0.0136537,0.342875,0.929776
1209,545,3.29396,-0.0123354,0.342785,0.92798
1217,537,3.2946,-0.0117337,0.342147,0.925936
1225,529,3.29289,-0.0139663,0.343244,0.924373
1233,521,3.29296,-0.0186046,0.343392,0.922157
1241,513,3.29374,-0.01428,0.341002,0.920014
1249,505,3.29367,-0.0112013,0.340279,0.918112
1257,497,3.29181,-0.019974,0.340831,0.915805
1265,489,3.29243,-0.0168347,0.339659,0.914103
1273,481,3.29278,-0.0132599,0.339044,0.911226
1281,473,3.29314,-0.0179463,0.337882,0.907985
1289,465,3.29304,-0.0144051,0.337271,0.906299
1297,457,3.29323,-0.0101975,0.336111,0.903923
1305,449,3.2927,-0.0166841,0.336048,0.901834
1313,441,3.29032,-0.0185826,0.337158,0.899248
1321,433,3.29113,-0.0141298,0.335437,0.897137
1329,425,3.29081,-0.0189101,0.334827,0.894923
1337,417,3.29101,-0.0171406,0.334217,0.892307
1345,409,3.29139,-0.0134644,0.333055,0.889609
1353,401,3.29072,-0.0190478,0.333717,0.886811
1361,393,3.29127,-0.016546,0.331837,0.884726
1369,385,3.29105,-0.0185157,0.330808,0.881758
1377,377,3.29108,-0.0177073,0.330059,0.879754
1385,369,3.29084,-0.0141105,0.32945,0.876809
1393,361,3.29078,-0.0116901,0.328846,0.874491
1401,353,3.29085,-0.0151796,0.327689,0.871924
1409,345,3.28813,-0.017315,0.32879,0.869184
1417,337,3.28892,-0.0126887,0.32707,0.867094
1425,329,3.28889,-0.0183465,0.326477,0.864513
1433,321,3.28875,-0.0146125,0.325876,0.860332
1441,313,3.28854,-0.01962,0.326043,0.85938
1449,305,3.28929,-0.0139347,0.323562,0.856539
1457,297,3.28932,-0.0120486,0.322961,0.853925
1465,289,3.28894,-0.0170458,0.322364,0.851702
1473,281,3.28884,-0.0151412,0.321765,0.849103
1481,273,3.28902,-0.0105585,0.320606,0.846726
1489,265,3.28836,-0.017622,0.320567,0.844584
1497,257,3.28908,-0.0118195,0.318859,0.841758
1505,249,3.2863,-0.0215732,0.319978,0.839173
1513,241,3.28752,-0.014938,0.317707,0.836886
1521,233,3.28701,-0.0131386,0.317676,0.834073
1529,225,3.28626,-0.0201841,0.317636,0.83197
1537,217,3.28702,-0.0136097,0.315931,0.829476
1545,209,3.28765,-0.0108658,0.314783,0.827438
1553,201,3.28744,-0.0148261,0.314193,0.824356
1561,193,3.28838,-0.00998615,0.312519,0.822408
1569,185,3.28558,-0.0210366,0.313605,0.820792
1577,177,3.28551,-0.0184223,0.31302,0.818266
1585,169,3.28551,-0.0137654,0.311858,0.815834
1593,161,3.28629,-0.0168221,0.310156,0.813712
1601,153,3.28667,-0.0129026,0.309759,0.81093
1609,145,3.28421,-0.0221327,0.309913,0.808874
1617,137,3.28431,-0.0172876,0.308413,0.806838
1625,129,3.285,-0.0124932,0.30671,0.804372
1633,121,3.28485,-0.0177099,0.306208,0.802132
1641,113,3.28507,-0.0150658,0.305535,0.799867
1649,105,3.285478,-0.0169765,0.303846,0.797031
1657,97,3.28372,-0.0181701,0.303839,0.795182
1665,89,3.28326,-0.0153745,0.303214,0.792977
1673,81,3.28334,-0.0187301,0.302154,0.790597
1681,73,3.28371,-0.0139164,0.301352,0.788198
1689,65,3.28391,-0.0191293,0.29985,0.78616
1697,57,3.28489,-0.0122753,0.297626,0.783778
1705,49,3.28243,-0.013538,0.298176,0.78178
1713,41,3.28218,-0.0208022,0.297592,0.779933
1721,33,3.28232,-0.0139432,0.296005,0.777356
1729,25,3.28241,-0.0191519,0.294788,0.775353
1737,17,3.28287,-0.012361,0.293117,0.772738
1745,9,3.28051,-0.021713,0.293111,0.770898
1751,3,3.2814,-0.0180647,0.291988,0.769227