File: hust_correlation_analysis/matrices/HUST_10-4_cycle_feature_matrix.csv
cycle_number,rul,voltage,current,capacity,charge_capacity
1,1813,3.30323,0.0254844,0.324402,1.06313
10,1804,3.29474,-0.00500465,0.335748,1.04446
19,1795,3.29881,-0.00277704,0.332162,1.05002
28,1786,3.30041,-0.00342488,0.330435,1.05274
37,1777,3.30256,-0.00242002,0.328473,1.05424
46,1768,3.30297,-0.00255431,0.328081,1.05432
55,1759,3.30328,-0.00316024,0.327693,1.05403
64,1750,3.30352,-0.00384758,0.327308,1.05369
73,1741,3.3037,-0.00454647,0.326709,1.05334
82,1732,3.30394,-0.00304205,0.32626,1.05221
91,1723,3.30369,-0.00404993,0.326437,1.05134
100,1714,3.30339,-0.00468746,0.326822,1.05075
109,1705,3.30517,-0.00287917,0.325392,1.05014
118,1696,3.3047,-0.00399943,0.325777,1.04917
127,1687,3.30413,-0.00500026,0.326167,1.04831
136,1678,3.30507,-0.00294864,0.325506,1.04755
145,1669,3.30505,-0.00391933,0.325897,1.04697
154,1660,3.30469,-0.0043424,0.325894,1.0464
163,1651,3.304,-0.00503679,0.326282,1.046
172,1642,3.30504,-0.00299133,0.325236,1.04514
181,1633,3.30462,-0.00405496,0.325624,1.04422
190,1624,3.30314,-0.0044846,0.326229,1.04376
199,1615,3.30312,-0.00517135,0.326407,1.04312
208,1606,3.30235,-0.00526503,0.326999,1.04286
217,1597,3.30336,-0.00341747,0.325965,1.042
226,1588,3.30311,-0.00393647,0.326351,1.04162
235,1579,3.3031,-0.00467655,0.32596,1.04125
244,1570,3.30419,-0.00268377,0.325308,1.04047
253,1561,3.30438,-0.00360941,0.325097,1.03981
262,1552,3.30407,-0.00417982,0.325485,1.03923
271,1543,3.30373,-0.00468633,0.325486,1.03888
280,1534,3.30306,-0.00528467,0.325972,1.03679
289,1525,3.30458,-0.00320814,0.324832,1.0377
298,1516,3.30419,-0.00410815,0.325228,1.03691
307,1507,3.3039,-0.0041864,0.325226,1.03686
316,1498,3.30329,-0.00515622,0.32562,1.03602
325,1489,3.30477,-0.00299179,0.324573,1.03549
334,1480,3.30474,-0.00344609,0.324575,1.03515
343,1471,3.30414,-0.00404049,0.324966,1.03458
352,1462,3.30335,-0.00459692,0.325363,1.03405
361,1453,3.30506,-0.00280739,0.324318,1.03324
370,1444,3.30442,-0.00346441,0.324708,1.0326
379,1435,3.30429,-0.00385075,0.324711,1.03234
388,1426,3.3037,-0.00402934,0.324708,1.03219
397,1417,3.30352,-0.00466643,0.325101,1.0316
406,1408,3.30326,-0.00515746,0.3251,1.03124
415,1399,3.30411,-0.00307672,0.32445,1.03049
424,1390,3.3042,-0.00412915,0.324448,1.02972
433,1381,3.30394,-0.00408033,0.324446,1.02976
442,1372,3.3046,-0.00243943,0.324013,1.02869
451,1363,3.30447,-0.00295991,0.324102,1.02831
460,1354,3.30405,-0.00345161,0.324485,1.02782
469,1345,3.30326,-0.00418994,0.324807,1.02692
478,1336,3.30371,-0.00453063,0.324593,1.02692
487,1327,3.30442,-0.00240357,0.324155,1.02616
496,1318,3.30413,-0.00286096,0.324153,1.02584
505,1309,3.30363,-0.00397229,0.324553,1.02489
514,1300,3.30348,-0.00441953,0.32455,1.02457
523,1291,3.30369,-0.00232392,0.323902,1.02381
532,1282,3.30423,-0.00285091,0.323902,1.02346
541,1273,3.30339,-0.00349429,0.324303,1.02284
550,1264,3.30317,-0.00400102,0.324302,1.02249
559,1255,3.30417,-0.00237723,0.323654,1.02139
568,1246,3.3043,-0.00288752,0.32344,1.02102
577,1237,3.30364,-0.00334235,0.323651,1.02069
586,1228,3.30313,-0.00400152,0.324054,1.0201
595,1219,3.30382,-0.0022403,0.323406,1.01908
604,1210,3.30367,-0.00281044,0.323405,1.01866
613,1201,3.30239,-0.00364751,0.324214,1.01773
622,1192,3.30239,-0.00461209,0.324214,1.01711
631,1183,3.30322,-0.00202975,0.323565,1.01667
640,1174,3.30335,-0.00296948,0.323352,1.0158
649,1165,3.30286,-0.00355149,0.323566,1.01558
658,1156,3.30242,-0.00467018,0.32376,1.01467
667,1147,3.30223,-0.00476502,0.323758,1.01461
676,1138,3.30346,-0.00306428,0.323115,1.01356
685,1129,3.30335,-0.00357591,0.323114,1.01321
694,1120,3.30285,-0.00462779,0.323524,1.01233
703,1111,3.30424,-0.00235135,0.32247,1.01179
712,1102,3.30393,-0.00342049,0.322877,1.01089
721,1093,3.30281,-0.00395496,0.323283,1.01038
730,1084,3.30276,-0.00495831,0.323278,1.00965
739,1075,3.30315,-0.00292814,0.322847,1.00881
748,1066,3.30284,-0.00345955,0.322917,1.00844
757,1057,3.30151,-0.00474713,0.323662,1.00722
766,1048,3.30322,-0.00247636,0.322611,1.00669
775,1039,3.30266,-0.00305235,0.322398,1.00629
784,1030,3.30267,-0.00403318,0.322811,1.00548
793,1021,3.30191,-0.00517876,0.323221,1.00454
802,1012,3.30322,-0.00311446,0.322165,1.00385
811,1003,3.30278,-0.00404695,0.322576,1.00305
820,994,3.3021,-0.00471072,0.322989,1.00246
829,985,3.30271,-0.00300521,0.322344,1.00135
838,976,3.30248,-0.00348266,0.322346,1.00102
847,967,3.3013,-0.00479638,0.323175,0.99982
856,958,3.30293,-0.00229885,0.321703,0.999547
865,949,3.30221,-0.00354937,0.322118,0.998537
874,940,3.30213,-0.00467264,0.322537,0.997621
883,931,3.30299,-0.00243702,0.321481,0.997036
892,922,3.30248,-0.00359764,0.321893,0.996076
901,913,3.30136,-0.00477596,0.322305,0.995127
910,904,3.30077,-0.00545971,0.322725,0.99449
919,895,3.3015,-0.00366193,0.322088,0.993466
928,886,3.30121,-0.00484086,0.322505,0.992502
937,877,3.30262,-0.00238475,0.321448,0.992055
946,868,3.30182,-0.00358001,0.321866,0.991096
955,859,3.30093,-0.0047083,0.321863,0.990294
964,850,3.30111,-0.00316304,0.322075,0.98879
973,841,3.30092,-0.00422425,0.322071,0.988037
982,832,3.30163,-0.00246521,0.322076,0.986947
991,823,3.30138,-0.00363391,0.322285,0.986011
1000,814,3.30034,-0.00472428,0.322066,0.985244
1009,805,3.3011,-0.00296266,0.321644,0.984013
1018,796,3.29995,-0.00417899,0.322283,0.983039
1027,787,3.30108,-0.00240823,0.321652,0.981955
1036,778,3.30049,-0.00359498,0.32207,0.98099
1045,769,3.29966,-0.00527278,0.322287,0.979705
1054,760,3.29968,-0.00320035,0.321871,0.978807
1063,751,3.2996,-0.00437893,0.321868,0.978003
1072,742,3.30073,-0.00247803,0.321022,0.976968
1081,733,3.29968,-0.00419664,0.321883,0.975545
1090,724,3.29785,-0.00565817,0.32275,0.974257
1099,715,3.29889,-0.00383192,0.321902,0.973307
1108,706,3.2984,-0.00505757,0.322332,0.972341
1117,697,3.29911,-0.00380675,0.321488,0.97087
1126,688,3.29754,-0.005079,0.322361,0.969731
1135,679,3.29918,-0.00330105,0.321297,0.968754
1144,670,3.29839,-0.00488639,0.321736,0.967553
1153,661,3.29851,-0.00368066,0.321547,0.965889
1162,652,3.29747,-0.00496344,0.321987,0.964875
1171,643,3.29889,-0.00365294,0.321359,0.963427
1180,634,3.2986,-0.00239785,0.321173,0.961775
1189,625,3.29741,-0.00373311,0.321953,0.960746
1198,616,3.29852,-0.003024,0.321441,0.958763
1207,607,3.29711,-0.00425192,0.321881,0.957794
1216,598,3.29731,-0.00177593,0.320914,0.955744
1225,589,3.29653,-0.00509705,0.322154,0.954599
1234,580,3.29704,-0.00385591,0.321529,0.953052
1243,571,3.29496,-0.0055647,0.322432,0.951648
1252,562,3.29506,-0.00455253,0.322479,0.949811
1261,553,3.29653,-0.00324878,0.321647,0.948319
1270,544,3.29467,-0.00554449,0.322618,0.946522
1279,535,3.29484,-0.00451946,0.322399,0.944703
1288,526,3.29527,-0.00321567,0.321782,0.94319
1297,517,3.29349,-0.00513367,0.322453,0.941771
1306,508,3.29418,-0.00396348,0.322303,0.94003
1315,499,3.2938,-0.00336691,0.322151,0.937914
1324,490,3.29355,-0.00275886,0.322006,0.935776
1333,481,3.29282,-0.00462063,0.322467,0.934429
1342,472,3.29331,-0.0038579,0.321861,0.932554
1351,463,3.29282,-0.00344439,0.322192,0.930156
1360,454,3.29336,-0.00659218,0.320891,0.92749
1369,445,3.29227,-0.00759446,0.321449,0.925455
1378,436,3.29199,-0.00356259,0.320026,0.923333
1387,427,3.29073,-0.00948759,0.3208,0.921033
1396,418,3.29161,-0.00729742,0.319284,0.918915
1405,409,3.29185,-0.00339137,0.318209,0.916593
1414,400,3.29191,-0.00790045,0.317604,0.914234
1423,391,3.29327,-0.00105039,0.315175,0.911649
1432,382,3.29093,-0.0103387,0.316058,0.909624
1441,373,3.29329,-0.00199742,0.313446,0.906722
1450,364,3.29131,-0.00369554,0.314808,0.904077
1459,355,3.29129,-0.00695421,0.313093,0.901395
1468,346,3.29095,-0.00468741,0.312706,0.899156
1477,337,3.29132,-0.00782985,0.311422,0.896525
1486,328,3.29087,-0.00646558,0.311033,0.893717
1495,319,3.29098,-0.00792864,0.309499,0.891005
1504,310,3.29197,-0.00392047,0.307969,0.888827
1513,301,3.29045,-0.00975646,0.308299,0.885423
1522,292,3.2915,-0.00470234,0.306249,0.882725
1531,283,3.29045,-0.00318041,0.306168,0.879882
1540,274,3.29113,-0.00465518,0.304177,0.877273
1549,265,3.29093,-0.00308795,0.303586,0.874601
1558,256,3.28919,-0.00886993,0.303913,0.871261
1567,247,3.2922,-0.00717742,0.300963,0.868394
1576,238,3.29174,-0.00613928,0.300743,0.865233
1585,229,3.29172,-0.00103693,0.299228,0.862374
1594,220,3.29203,-0.00447073,0.297713,0.859737
1603,211,3.29059,-0.00352666,0.298041,0.856402
1612,202,3.29029,-0.00747301,0.296987,0.853326
1621,193,3.29096,-0.00806211,0.294815,0.849959
1630,184,3.29107,-0.00467405,0.293774,0.847211
1639,175,3.29003,-0.00312542,0.293638,0.844377
1648,166,3.29014,-0.00425371,0.291681,0.840662
1657,157,3.29202,-0.00436138,0.289604,0.837694
1666,148,3.29077,-0.00347485,0.289468,0.834434
1675,139,3.28938,-0.00248094,0.289536,0.831241
1684,130,3.2898,-0.00464865,0.287589,0.828231
1693,121,3.2898,-0.0064545,0.286099,0.825274
1702,112,3.2921,-0.00709011,0.283839,0.822
1711,103,3.29079,-0.0025719,0.283005,0.818537
1720,94,3.28965,-0.00167426,0.282867,0.815282
1729,85,3.28821,-0.00771692,0.282739,0.812121
1738,76,3.28842,-0.00826836,0.280808,0.808716
1747,67,3.28821,-0.00366061,0.279334,0.805385
1756,58,3.28938,-0.00434079,0.277294,0.802078
1765,49,3.28788,-0.00864055,0.276712,0.798742
1774,40,3.28844,-0.0022369,0.274369,0.795364
1783,31,3.28824,-0.0129807,0.274125,0.792871
1792,22,3.28684,-0.00834622,0.273728,0.789895
1801,13,3.28828,-0.000250734,0.271186,0.786343
1810,4,3.28834,-0.00202591,0.269306,0.783538
1811,3,3.28629,-0.00796805,0.270216,0.783037