File: hust_correlation_analysis/matrices/HUST_6-8_cycle_feature_matrix.csv
cycle_number,rul,voltage,current,capacity,charge_capacity
1,2452,3.33732,-0.0119926,0.274298,1.02784
13,2440,3.31806,-0.0172367,0.283134,1.01737
25,2428,3.31872,-0.01735,0.282143,1.01523
37,2416,3.31944,-0.0166695,0.281135,1.01341
49,2404,3.32057,-0.015305,0.280134,1.01192
61,2392,3.31927,-0.0174075,0.280551,1.01068
73,2380,3.32023,-0.0161045,0.27955,1.00918
85,2368,3.31956,-0.0180761,0.279554,1.00826
97,2356,3.32096,-0.0161864,0.278555,1.00704
109,2344,3.31978,-0.0181978,0.278987,1.00589
121,2332,3.32064,-0.0162827,0.277985,1.00466
133,2320,3.32061,-0.0176285,0.277988,1.00405
145,2308,3.32204,-0.0155377,0.276532,1.00316
157,2296,3.3212,-0.0169511,0.276992,1.00226
169,2284,3.32248,-0.014944,0.275793,1.00137
181,2272,3.32163,-0.0163662,0.276427,1.00022
193,2260,3.32047,-0.0178517,0.276859,0.999314
205,2248,3.32207,-0.0157416,0.275437,0.998438
217,2236,3.32162,-0.0170772,0.275851,0.997526
229,2224,3.32105,-0.0179382,0.275856,0.997158
241,2212,3.32283,-0.0158112,0.274436,0.99631
253,2200,3.32219,-0.0170837,0.274848,0.995418
265,2188,3.32044,-0.0171815,0.27569,0.994827
277,2176,3.31973,-0.0185868,0.276114,0.993914
289,2164,3.32127,-0.0158837,0.274674,0.993267
301,2152,3.32125,-0.0172652,0.274353,0.992922
313,2140,3.32079,-0.0186697,0.274677,0.992001
325,2128,3.32233,-0.0166394,0.273257,0.991132
337,2116,3.32148,-0.0172952,0.273671,0.990529
349,2104,3.3213,-0.0187176,0.27368,0.989907
361,2092,3.3226,-0.0160549,0.273153,0.989016
373,2080,3.32225,-0.0174586,0.272679,0.988388
385,2068,3.32199,-0.0180729,0.272674,0.988088
397,2056,3.32105,-0.0189012,0.273106,0.986308
409,2044,3.32291,-0.0167814,0.271676,0.986605
421,2032,3.32186,-0.0174963,0.272098,0.986014
433,2020,3.32124,-0.0189937,0.272538,0.985112
445,2008,3.3229,-0.0161679,0.271092,0.984514
457,1996,3.32262,-0.0169061,0.271106,0.984221
469,1984,3.32256,-0.0182491,0.271102,0.983596
481,1972,3.32184,-0.0189674,0.271537,0.983036
493,1960,3.32323,-0.0162347,0.270091,0.982391
505,1948,3.32302,-0.0168703,0.270082,0.982075
517,1936,3.32212,-0.0183489,0.270513,0.981153
529,1924,3.32143,-0.0191156,0.27094,0.980545
541,1912,3.32267,-0.0171035,0.269943,0.97939
553,1900,3.32292,-0.0176871,0.269495,0.979314
565,1888,3.32229,-0.0184004,0.269507,0.979023
577,1876,3.32412,-0.0163496,0.268484,0.977797
589,1864,3.32384,-0.0170514,0.268481,0.977468
601,1852,3.32377,-0.017818,0.268487,0.977145
613,1840,3.32247,-0.0191974,0.268908,0.976232
625,1828,3.32393,-0.0165416,0.26792,0.975422
637,1816,3.32369,-0.0180387,0.267916,0.974716
649,1804,3.32214,-0.0186327,0.268354,0.974477
661,1792,3.32372,-0.0166059,0.267341,0.972814
673,1780,3.32341,-0.0172489,0.267343,0.972763
685,1768,3.32311,-0.0187678,0.267341,0.972057
697,1756,3.3227,-0.0192862,0.267335,0.971793
709,1744,3.32392,-0.0166222,0.266318,0.970867
721,1732,3.3238,-0.0180379,0.266312,0.970206
733,1720,3.32296,-0.0187592,0.267174,0.969637
745,1708,3.32453,-0.0166483,0.265292,0.968687
757,1696,3.32394,-0.0174846,0.265939,0.968087
769,1684,3.32254,-0.0188753,0.266165,0.967222
781,1672,3.32244,-0.0196329,0.266158,0.966857
793,1660,3.3241,-0.0175246,0.265121,0.965611
805,1648,3.32321,-0.0182146,0.265131,0.96533
817,1636,3.32261,-0.0198123,0.265569,0.964374
829,1624,3.32443,-0.0166331,0.264109,0.96389
841,1612,3.32354,-0.0182436,0.264532,0.962896
853,1600,3.32324,-0.0190284,0.265017,0.962557
865,1588,3.32481,-0.0168362,0.263495,0.961332
877,1576,3.32408,-0.0176005,0.263508,0.961043
889,1564,3.32352,-0.019133,0.263933,0.960069
901,1552,3.32523,-0.0170102,0.262912,0.958889
913,1540,3.32381,-0.0178239,0.263351,0.958288
925,1528,3.32371,-0.0192079,0.263346,0.95765
937,1516,3.32258,-0.0200485,0.263793,0.957065
949,1504,3.32402,-0.0177168,0.26232,0.956165
961,1492,3.32349,-0.0192844,0.262759,0.955222
973,1480,3.32287,-0.0200159,0.262754,0.954879
985,1468,3.32311,-0.0177516,0.262154,0.953457
997,1456,3.32327,-0.0186331,0.262159,0.953089
1009,1444,3.32231,-0.020192,0.262592,0.952127
1021,1432,3.32366,-0.0180953,0.261573,0.950934
1033,1420,3.32354,-0.0195427,0.261558,0.950242
1045,1408,3.3251,-0.0165033,0.260097,0.949702
1057,1396,3.32381,-0.0179969,0.260525,0.948761
1069,1384,3.32328,-0.0196005,0.260956,0.947773
1081,1372,3.32452,-0.0174862,0.26013,0.946333
1093,1360,3.32319,-0.0189949,0.260371,0.945659
1105,1348,3.32271,-0.0205597,0.260826,0.94476
1117,1336,3.32405,-0.0176012,0.259334,0.944111
1129,1324,3.32299,-0.0192224,0.260262,0.941707
1141,1312,3.3248,-0.0177046,0.258752,0.941666
1153,1300,3.32366,-0.0184168,0.259172,0.941032
1165,1288,3.32231,-0.0198938,0.259622,0.940149
1177,1276,3.32365,-0.0177327,0.258563,0.938856
1189,1264,3.3224,-0.0193267,0.259007,0.937892
1201,1252,3.32215,-0.0207704,0.259014,0.937293
1213,1240,3.32333,-0.0185554,0.25796,0.936038
1225,1228,3.32203,-0.0202572,0.258865,0.934825
1237,1216,3.32281,-0.0188434,0.258268,0.932982
1249,1204,3.32191,-0.0202579,0.258262,0.932352
1261,1192,3.32263,-0.0181329,0.257669,0.93083
1273,1180,3.3215,-0.0196715,0.258127,0.929928
1285,1168,3.32294,-0.0181847,0.257496,0.928363
1297,1156,3.32134,-0.019776,0.25753,0.927419
1309,1144,3.32016,-0.0213939,0.257987,0.926459
1321,1132,3.3208,-0.0200773,0.2574,0.924623
1333,1120,3.3221,-0.017723,0.256332,0.923381
1345,1108,3.31999,-0.0201644,0.257257,0.921852
1357,1096,3.32119,-0.0185941,0.256194,0.920283
1369,1084,3.31956,-0.0210885,0.257121,0.918718
1381,1072,3.32058,-0.0185354,0.256056,0.917559
1393,1060,3.3193,-0.0211369,0.256507,0.91616
1405,1048,3.32048,-0.0176512,0.25545,0.914202
1417,1036,3.31797,-0.0200605,0.256383,0.91292
1429,1024,3.31969,-0.0237103,0.25436,0.911557
1441,1012,3.32051,-0.0180477,0.252821,0.909529
1453,1000,3.31841,-0.0205644,0.253748,0.907943
1465,988,3.31964,-0.0250729,0.252196,0.906264
1477,976,3.31761,-0.027728,0.253144,0.904702
1489,964,3.31887,-0.0228208,0.251587,0.902302
1501,952,3.31901,-0.021229,0.250984,0.899145
1513,940,3.31755,-0.0215995,0.250982,0.899126
1525,928,3.31859,-0.0181545,0.249899,0.897092
1537,916,3.31795,-0.0257838,0.249769,0.894668
1549,904,3.31692,-0.0259942,0.249289,0.893617
1561,892,3.31792,-0.0232687,0.2482,0.891275
1573,880,3.31846,-0.0195985,0.247118,0.889348
1585,868,3.31611,-0.0208399,0.247583,0.887361
1597,856,3.31627,-0.0277979,0.246963,0.885485
1609,844,3.31758,-0.0205908,0.244915,0.88298
1621,832,3.31487,-0.0252208,0.245849,0.881804
1633,820,3.31618,-0.0201825,0.244351,0.879425
1645,808,3.31609,-0.0186481,0.24384,0.877509
1657,796,3.31637,-0.0264656,0.243014,0.875311
1669,784,3.31443,-0.0270927,0.243502,0.873659
1681,772,3.31581,-0.0216408,0.241437,0.871632
1693,760,3.31595,-0.0274113,0.240331,0.869335
1705,748,3.31629,-0.0223724,0.238747,0.866906
1717,736,3.31393,-0.0272858,0.240161,0.865427
1729,724,3.31414,-0.0265417,0.239522,0.863216
1741,712,3.31483,-0.021286,0.237919,0.860817
1753,700,3.31554,-0.0248512,0.236329,0.858462
1765,688,3.31348,-0.0298011,0.237275,0.857272
1777,676,3.31441,-0.0223456,0.23519,0.854783
1789,664,3.31496,-0.0192412,0.234074,0.8525
1801,652,3.31471,-0.0275526,0.233598,0.850255
1813,640,3.31252,-0.028915,0.233891,0.848296
1825,628,3.31297,-0.0259148,0.232756,0.845977
1837,616,3.31444,-0.0195417,0.230675,0.84425
1849,604,3.31488,-0.0186953,0.229998,0.842007
1861,592,3.31202,-0.031534,0.230947,0.840107
1873,580,3.31237,-0.0275837,0.229845,0.838079
1885,568,3.31385,-0.0219915,0.227704,0.836053
1897,556,3.3139,-0.0212305,0.227018,0.833777
1909,544,3.31218,-0.0227099,0.227489,0.831787
1921,532,3.31188,-0.0312143,0.226816,0.829568
1933,520,3.31258,-0.0257194,0.225562,0.827165
1945,508,3.31331,-0.0226687,0.224026,0.824846
1957,496,3.31403,-0.027682,0.222392,0.823241
1969,484,3.31039,-0.0316692,0.223806,0.820993
1981,472,3.3118,-0.0284564,0.222159,0.818967
1993,460,3.3128,-0.0252693,0.220992,0.816668
2005,448,3.31423,-0.0194898,0.21887,0.814605
2017,436,3.3116,-0.0295162,0.219338,0.812961
2029,424,3.31204,-0.0262995,0.218153,0.810623
2041,412,3.31304,-0.0229774,0.216499,0.808606
2053,400,3.31329,-0.0220983,0.215787,0.806394
2065,388,3.31109,-0.0227152,0.216255,0.804717
2077,376,3.3116,-0.0314402,0.215062,0.802803
2089,364,3.31116,-0.0283859,0.214345,0.800134
2101,352,3.31291,-0.022504,0.212212,0.79809
2113,340,3.31063,-0.0230528,0.212672,0.796414
2125,328,3.31148,-0.0318775,0.211474,0.794521
2137,316,3.31192,-0.0261705,0.209803,0.792103
2149,304,3.31285,-0.0227979,0.209076,0.789794
2161,292,3.31107,-0.0231816,0.208588,0.788471
2173,280,3.3108,-0.0324658,0.20786,0.786223
2185,268,3.31182,-0.0291213,0.206634,0.783871
2197,256,3.30997,-0.0293969,0.206624,0.78257
2209,244,3.3105,-0.0262439,0.205401,0.780182
2221,232,3.31092,-0.0328431,0.204176,0.777893
2233,220,3.31193,-0.0309485,0.202952,0.77629
2245,208,3.30974,-0.0299447,0.202944,0.774224
2257,196,3.3111,-0.033895,0.200786,0.772197
2269,184,3.31209,-0.0220077,0.200108,0.770216
2281,172,3.31205,-0.0313118,0.199231,0.767995
2293,160,3.31071,-0.0292977,0.198774,0.766588
2305,148,3.31162,-0.0258066,0.19752,0.764231
2317,136,3.3124,-0.0238102,0.196264,0.762607
2329,124,3.30986,-0.0358831,0.196733,0.760659
2341,112,3.31099,-0.0324795,0.19548,0.758316
2353,100,3.31193,-0.0303385,0.194209,0.756702
2365,88,3.31342,-0.0215042,0.192186,0.754245
2377,76,3.31054,-0.035334,0.192494,0.752972
2389,64,3.3113,-0.0291943,0.190766,0.750543
2401,52,3.31322,-0.0226807,0.18858,0.7485
2413,40,3.30981,-0.0314057,0.1904,0.747047
2425,28,3.31061,-0.0267161,0.189112,0.745029
2437,16,3.31241,-0.0219086,0.187368,0.743338
2449,4,3.30935,-0.0369632,0.18828,0.741454
2450,3,3.30948,-0.0263227,0.188274,0.741397