File: hust_correlation_analysis/matrices/HUST_5-4_cycle_feature_matrix.csv
cycle_number,rul,voltage,current,capacity,charge_capacity
1,1964,3.31402,-0.00507444,0.344667,1.03022
11,1954,3.30608,-0.00569619,0.349424,1.02307
21,1944,3.30561,-0.00801665,0.349319,1.02169
31,1934,3.30754,-0.00621031,0.347736,1.0208
41,1924,3.30768,-0.00738214,0.34775,1.02035
51,1914,3.30724,-0.00813211,0.347845,1.01995
61,1904,3.30834,-0.00634013,0.347106,1.01886
71,1894,3.30787,-0.00677094,0.347214,1.01862
81,1884,3.30827,-0.00798813,0.346632,1.01802
91,1874,3.30979,-0.00568538,0.345621,1.01746
101,1864,3.3093,-0.00632505,0.345502,1.01703
111,1854,3.30903,-0.00683824,0.345508,1.01673
121,1844,3.30897,-0.00745905,0.345501,1.01635
131,1834,3.30878,-0.00801916,0.345502,1.01602
141,1824,3.31039,-0.00570322,0.34437,1.0154
151,1814,3.31009,-0.00633367,0.344365,1.01499
161,1804,3.3098,-0.00681331,0.344358,1.01468
171,1794,3.30886,-0.00751579,0.344897,1.01406
181,1784,3.30904,-0.00804504,0.344813,1.01376
191,1774,3.31143,-0.00572525,0.343246,1.01336
201,1764,3.31078,-0.00566301,0.343235,1.01337
211,1754,3.31073,-0.00625852,0.34323,1.01301
221,1744,3.31083,-0.00679501,0.343238,1.01269
231,1734,3.31074,-0.00694177,0.343824,1.01227
241,1724,3.31024,-0.0075084,0.343816,1.01217
251,1714,3.30969,-0.00748108,0.34373,1.01218
261,1704,3.31145,-0.00577167,0.342595,1.01118
271,1694,3.31154,-0.00571504,0.342141,1.01141
281,1684,3.31154,-0.00630064,0.342145,1.01107
291,1674,3.31129,-0.00697009,0.342131,1.01064
301,1664,3.310895,-0.00698322,0.342508,1.00916
311,1654,3.3113,-0.00749821,0.341677,1.0105
321,1644,3.31052,-0.00813469,0.342141,1.00993
331,1634,3.31299,-0.0058426,0.340078,1.0096
341,1624,3.31261,-0.00624999,0.340542,1.0092
351,1614,3.31203,-0.00689188,0.340536,1.00879
361,1604,3.31266,-0.00746288,0.340075,1.0086
371,1594,3.31209,-0.00751553,0.340073,1.00856
381,1584,3.31361,-0.00518452,0.33895,1.00797
391,1574,3.31292,-0.00575079,0.339414,1.00746
401,1564,3.31315,-0.00628839,0.33894,1.00726
411,1554,3.31318,-0.00687549,0.338933,1.00689
421,1544,3.31308,-0.00741431,0.338929,1.00655
431,1534,3.31278,-0.00810276,0.33888,1.00615
441,1524,3.31247,-0.00812794,0.338946,1.00614
451,1514,3.31407,-0.00571104,0.337832,1.00561
461,1504,3.31446,-0.00624241,0.337376,1.00544
471,1494,3.31413,-0.00687577,0.33737,1.00503
481,1484,3.31387,-0.00745933,0.337374,1.00468
491,1474,3.31345,-0.00805195,0.337363,1.00428
501,1464,3.31508,-0.00575218,0.336752,1.0037
511,1454,3.31467,-0.00632206,0.336255,1.00334
521,1444,3.3147,-0.00683486,0.336243,1.00298
531,1434,3.31418,-0.00747956,0.33625,1.00261
541,1424,3.31587,-0.0056459,0.33511,1.00161
551,1414,3.31593,-0.0062174,0.334655,1.00142
561,1404,3.3151,-0.0068586,0.335103,1.00085
571,1394,3.31451,-0.00810623,0.334978,0.999881
581,1384,3.31655,-0.00558697,0.333983,0.999558
591,1374,3.31592,-0.0062561,0.334336,0.999135
601,1364,3.31586,-0.00684983,0.33399,0.998775
611,1354,3.31537,-0.0075475,0.333986,0.998587
621,1344,3.31704,-0.00507733,0.332879,0.997828
631,1334,3.3166,-0.00636857,0.333327,0.996853
641,1324,3.31613,-0.0069137,0.333322,0.996502
651,1314,3.31573,-0.00747257,0.333319,0.996145
661,1304,3.31738,-0.00573087,0.332198,0.995138
671,1294,3.31648,-0.00637565,0.33266,0.994595
681,1284,3.31642,-0.00695993,0.33267,0.994245
691,1274,3.31644,-0.00756864,0.332211,0.994019
701,1264,3.31791,-0.00512024,0.331103,0.993484
711,1254,3.3178,-0.0063667,0.331097,0.992673
721,1244,3.31716,-0.00685823,0.331554,0.992233
731,1234,3.31674,-0.00814332,0.331554,0.991423
741,1224,3.31684,-0.00819905,0.331119,0.991576
751,1214,3.31825,-0.00623084,0.32999,0.990694
761,1204,3.31765,-0.00703324,0.330459,0.99008
771,1194,3.31758,-0.00812503,0.330443,0.989359
781,1184,3.3184,-0.00637602,0.329782,0.988185
791,1174,3.31874,-0.00685269,0.329332,0.988008
801,1164,3.31829,-0.00750474,0.329324,0.987613
811,1154,3.31947,-0.00578258,0.328667,0.986446
821,1144,3.31901,-0.00639812,0.328667,0.986066
831,1134,3.3182,-0.00756199,0.329118,0.985165
841,1124,3.31761,-0.00817153,0.329121,0.984794
851,1114,3.31976,-0.0102428,0.327108,0.984222
861,1104,3.31883,-0.00553325,0.328011,0.983075
871,1094,3.31856,-0.00964796,0.327105,0.981787
881,1084,3.32032,-0.00726445,0.325553,0.98158
891,1074,3.31938,-0.00705454,0.325998,0.980271
901,1064,3.31935,-0.00602263,0.325105,0.979961
911,1054,3.32063,-0.00425035,0.32445,0.978831
921,1044,3.31962,-0.0115486,0.324888,0.977876
931,1034,3.31885,-0.0112907,0.324883,0.976734
941,1024,3.3206,-0.00632414,0.322877,0.975472
951,1014,3.32034,-0.00549509,0.322445,0.97489
961,1004,3.32157,-0.0102231,0.321325,0.97357
971,994,3.32094,-0.010941,0.321788,0.973031
981,984,3.31988,-0.0106936,0.32179,0.97189
991,974,3.32234,-0.00569094,0.319371,0.970834
1001,964,3.32107,-0.00699293,0.320835,0.969744
1011,954,3.32037,-0.0126501,0.319805,0.968818
1021,944,3.32144,-0.0108889,0.319149,0.967703
1031,934,3.32069,-0.0122249,0.319586,0.966684
1041,924,3.32217,-0.00726258,0.317609,0.965421
1051,914,3.32175,-0.00535104,0.31709,0.964188
1061,904,3.32057,-0.00673574,0.317604,0.963144
1071,894,3.32149,-0.0109558,0.316945,0.962073
1081,884,3.32146,-0.0105743,0.316061,0.961307
1091,874,3.32247,-0.00730257,0.31497,0.959959
1101,864,3.32227,-0.00692674,0.314535,0.959052
1111,854,3.3225,-0.0103579,0.313873,0.957172
1121,844,3.32209,-0.0114582,0.31387,0.956736
1131,834,3.3227,-0.00727267,0.312719,0.954384
1141,824,3.32239,-0.00693888,0.312341,0.95347
1151,814,3.32154,-0.00669014,0.312346,0.952332
1161,804,3.32266,-0.0109008,0.311267,0.951446
1171,794,3.32148,-0.0113128,0.311696,0.949738
1181,784,3.32218,-0.00696822,0.310604,0.947755
1191,774,3.32155,-0.00819063,0.310616,0.947017
1201,764,3.32234,-0.0114966,0.309525,0.945377
1211,754,3.3232,-0.00723528,0.308447,0.943377
1221,744,3.32243,-0.00860083,0.308444,0.94251
1231,734,3.32312,-0.00576639,0.307364,0.940893
1241,724,3.32177,-0.0121979,0.307792,0.93928
1251,714,3.32227,-0.0085166,0.306695,0.936813
1261,704,3.32316,-0.0057744,0.30561,0.935118
1271,694,3.32184,-0.00616932,0.306033,0.933393
1281,684,3.32243,-0.00950113,0.304949,0.931753
1291,674,3.32326,-0.00672526,0.303866,0.930085
1301,664,3.32119,-0.00772834,0.304289,0.927995
1311,654,3.32204,-0.00550649,0.303635,0.925811
1321,644,3.3219,-0.00790228,0.30255,0.923444
1331,634,3.32065,-0.00828891,0.302985,0.921772
1341,624,3.32123,-0.00702008,0.302333,0.920318
1351,614,3.32123,-0.00961863,0.301683,0.917705
1361,604,3.32128,-0.00904139,0.301463,0.91569
1371,594,3.32185,-0.00680435,0.300371,0.9136
1381,584,3.32024,-0.00627984,0.300367,0.911309
1391,574,3.32003,-0.0103029,0.299715,0.909133
1401,564,3.32065,-0.00650392,0.298636,0.906722
1411,554,3.32019,-0.00591504,0.298849,0.904552
1421,544,3.3205,-0.00372465,0.298206,0.902326
1431,534,3.31875,-0.0100828,0.298191,0.899709
1441,524,3.31882,-0.00617109,0.297104,0.897306
1451,514,3.31811,-0.0127999,0.297326,0.894672
1461,504,3.31865,-0.0104894,0.296247,0.892648
1471,494,3.31845,-0.00729266,0.295593,0.889659
1481,484,3.31736,-0.0166398,0.295726,0.887435
1491,474,3.31738,-0.0134655,0.295087,0.884479
1501,464,3.31883,-0.00599316,0.293233,0.882458
1511,454,3.31869,-0.00920898,0.292599,0.879567
1521,444,3.31798,-0.00947525,0.292836,0.876908
1531,434,3.31867,-0.00544593,0.291325,0.874683
1541,424,3.31626,-0.0136477,0.292195,0.872167
1551,414,3.31641,-0.0120826,0.291547,0.869522
1561,404,3.31632,-0.00813044,0.290471,0.867089
1571,394,3.31647,-0.00647971,0.289823,0.864476
1581,384,3.31645,-0.0107638,0.289477,0.86231
1591,374,3.31654,-0.00907547,0.28856,0.859512
1601,364,3.31668,-0.00584204,0.287472,0.856627
1611,354,3.31561,-0.00921776,0.287276,0.85375
1621,344,3.31594,-0.00856061,0.286651,0.852187
1631,334,3.31645,-0.0101867,0.285467,0.84894
1641,324,3.31634,-0.00960196,0.284946,0.846907
1651,314,3.31593,-0.00623587,0.284311,0.84393
1661,304,3.31588,-0.00464072,0.283679,0.841547
1671,294,3.31563,-0.00912848,0.283045,0.839054
1681,284,3.31412,-0.00900131,0.283037,0.836474
1691,274,3.31445,-0.00655626,0.281966,0.834458
1701,264,3.31407,-0.0100475,0.281339,0.831473
1711,254,3.3142,-0.00663571,0.280262,0.828626
1721,244,3.31378,-0.0128834,0.280073,0.826641
1731,234,3.31405,-0.00952403,0.279,0.824014
1741,224,3.3146,-0.00697979,0.277943,0.820446
1751,214,3.31398,-0.0104979,0.27732,0.818811
1761,204,3.31476,-0.00631422,0.276375,0.81652
1771,194,3.31434,-0.00464234,0.275629,0.813744
1781,184,3.31214,-0.0144473,0.276058,0.812088
1791,174,3.3124,-0.01033,0.274991,0.809599
1801,164,3.31299,-0.00776771,0.273938,0.807614
1811,154,3.31301,-0.00955499,0.272431,0.804533
1821,144,3.31311,-0.0070698,0.271818,0.802353
1831,134,3.31303,-0.0117727,0.2712,0.80011
1841,124,3.31319,-0.00786232,0.27013,0.797438
1851,114,3.31095,-0.00930543,0.270569,0.795231
1861,104,3.31194,-0.00670748,0.269156,0.791923
1871,94,3.31159,-0.00817933,0.267583,0.79041
1881,84,3.311865,-0.00573776,0.266534,0.788371
1891,74,3.31125,-0.0118594,0.267093,0.786441
1901,64,3.31173,-0.00764163,0.265309,0.784103
1911,54,3.31043,-0.00851798,0.265306,0.782336
1921,44,3.30984,-0.0115525,0.264254,0.779799
1931,34,3.31047,-0.00897198,0.263212,0.777781
1941,24,3.31051,-0.00476276,0.26217,0.77528
1951,14,3.31063,-0.00930888,0.261123,0.773292
1961,4,3.30948,-0.0104468,0.260519,0.771112
1962,3,3.3085,-0.00718756,0.260266,0.770692