File: hust_correlation_analysis/matrices/HUST_7-3_cycle_feature_matrix.csv
cycle_number,rul,voltage,current,capacity,charge_capacity
1,1297,3.30048,-0.00419295,0.365893,1.04223
7,1291,3.29435,-0.00515992,0.370108,1.0377
13,1285,3.29592,-0.00367996,0.368716,1.03686
19,1279,3.29585,-0.00461927,0.368736,1.03617
25,1273,3.29595,-0.00521931,0.368267,1.03581
31,1267,3.29801,-0.00310881,0.366887,1.03544
37,1261,3.29722,-0.00379939,0.367323,1.03479
43,1255,3.29729,-0.00429037,0.36732,1.03444
49,1249,3.29736,-0.00537896,0.367324,1.03362
55,1243,3.29687,-0.00535009,0.367322,1.03364
61,1237,3.29816,-0.0038326,0.366369,1.03266
67,1231,3.2979,-0.00427267,0.366386,1.03236
73,1225,3.2986,-0.00473208,0.366474,1.03215
79,1219,3.29727,-0.00538757,0.366817,1.0314
85,1213,3.29813,-0.00578116,0.366029,1.03138
91,1207,3.29896,-0.00382906,0.365441,1.03062
97,1201,3.29918,-0.00368863,0.365006,1.03085
103,1195,3.29842,-0.00431004,0.365441,1.03026
109,1189,3.29879,-0.0046928,0.365439,1.03022
115,1183,3.29869,-0.00527611,0.365436,1.02951
121,1177,3.29804,-0.0053193,0.365317,1.02947
127,1171,3.2998,-0.00322863,0.364496,1.02896
133,1165,3.29935,-0.00374701,0.364494,1.02855
139,1159,3.29931,-0.00423289,0.36448,1.02815
145,1153,3.29902,-0.0042604,0.364483,1.02815
151,1147,3.29918,-0.00474715,0.364488,1.02779
157,1141,3.29848,-0.00537429,0.364913,1.02716
163,1135,3.29951,-0.00517974,0.364051,1.02755
169,1129,3.29911,-0.00582834,0.36448,1.02693
175,1123,3.299,-0.00573761,0.364047,1.02712
181,1117,3.30044,-0.0037616,0.363527,1.02637
187,1111,3.29964,-0.0043283,0.36397,1.02583
193,1105,3.30003,-0.00427866,0.363531,1.026
199,1099,3.29974,-0.00433896,0.36353,1.02593
205,1093,3.29973,-0.00490405,0.363951,1.02535
211,1087,3.29937,-0.00507921,0.363947,1.02522
217,1081,3.30002,-0.00534497,0.363515,1.02514
223,1075,3.29947,-0.00554135,0.363525,1.025
229,1069,3.29971,-0.00580539,0.363103,1.02524
235,1063,3.30073,-0.00380865,0.362589,1.02421
241,1057,3.30051,-0.00389707,0.362589,1.02415
247,1051,3.30081,-0.0043025,0.362166,1.024
253,1045,3.29998,-0.00493099,0.3626,1.0234
259,1039,3.30057,-0.00486062,0.362157,1.02356
265,1033,3.29954,-0.00542637,0.362582,1.02298
271,1027,3.30054,-0.00575883,0.362153,1.02287
277,1021,3.30006,-0.005892,0.362166,1.02278
283,1015,3.30182,-0.00368816,0.361211,1.02232
289,1009,3.30177,-0.00430259,0.361224,1.02187
295,1003,3.30114,-0.00431545,0.361227,1.02185
301,997,3.30196,-0.00482677,0.360798,1.02159
307,991,3.30073,-0.00483387,0.361223,1.02146
313,985,3.30148,-0.00530557,0.36132,1.01973
319,979,3.30054,-0.00590462,0.361362,1.02063
325,973,3.30283,-0.00367087,0.359928,1.02033
331,967,3.30242,-0.00364451,0.359851,1.02035
337,961,3.30243,-0.00418817,0.359858,1.01994
343,955,3.30255,-0.00471722,0.359848,1.01951
349,949,3.3017,-0.00529629,0.360286,1.01894
355,943,3.30213,-0.00570424,0.359854,1.01876
361,937,3.30128,-0.00578492,0.359854,1.01868
367,931,3.30384,-0.00361595,0.358487,1.01832
373,925,3.30276,-0.00420927,0.358919,1.01774
379,919,3.30353,-0.00464671,0.358478,1.01751
385,913,3.30251,-0.00482277,0.35891,1.01725
391,907,3.3026,-0.00532205,0.358911,1.01688
397,901,3.30228,-0.00586462,0.3589,1.01642
403,895,3.30332,-0.00375698,0.358387,1.01576
409,889,3.30358,-0.00433276,0.357962,1.01542
415,883,3.30326,-0.00472568,0.357965,1.01503
421,877,3.30322,-0.00534407,0.357981,1.01468
427,871,3.30274,-0.00540092,0.358102,1.01463
433,865,3.30387,-0.00370578,0.357447,1.01365
439,859,3.3042,-0.00424504,0.357031,1.01335
445,853,3.30372,-0.0042203,0.357025,1.01336
451,847,3.30349,-0.00537309,0.357452,1.01238
457,841,3.30245,-0.00583693,0.35788,1.01189
463,835,3.30454,-0.00371862,0.356518,1.01148
469,829,3.30366,-0.0043337,0.35693,1.01083
475,823,3.30426,-0.00471082,0.356517,1.0107
481,817,3.30293,-0.00528648,0.357023,1.01012
487,811,3.30559,-0.00307207,0.355147,1.00987
493,805,3.3046,-0.00371441,0.355572,1.00924
499,799,3.3045,-0.00473175,0.355997,1.00836
505,793,3.30429,-0.00469795,0.355568,1.00848
511,787,3.30411,-0.00570065,0.355989,1.00758
517,781,3.30558,-0.00316389,0.354627,1.00747
523,775,3.30465,-0.00429734,0.355482,1.00637
529,769,3.30528,-0.00432695,0.354625,1.00656
535,763,3.30403,-0.00539149,0.355482,1.00551
541,757,3.30482,-0.00578912,0.354619,1.00541
547,751,3.30551,-0.00384082,0.354116,1.00462
553,745,3.30595,-0.00418426,0.354121,1.00438
559,739,3.3052,-0.00481356,0.354123,1.00389
565,733,3.30497,-0.00531894,0.354122,1.00349
571,727,3.3062,-0.00327453,0.353194,1.0029
577,721,3.30564,-0.00424591,0.353624,1.00203
583,715,3.30584,-0.00478245,0.353192,1.00172
589,709,3.30511,-0.00538761,0.353611,1.00113
595,703,3.3055,-0.00588929,0.353186,1.00083
601,697,3.30615,-0.00385198,0.352682,1.0001
607,691,3.30612,-0.00474455,0.352678,0.999398
613,685,3.30562,-0.00545415,0.353029,0.998725
619,679,3.30665,-0.00332437,0.352167,0.998191
625,673,3.30692,-0.00423934,0.351749,0.9976
631,667,3.30612,-0.00479888,0.352172,0.997024
637,661,3.30618,-0.0052582,0.351747,0.996786
643,655,3.30738,-0.00370281,0.351248,0.995689
649,649,3.30651,-0.00428059,0.351669,0.995113
655,643,3.30589,-0.00545014,0.352156,0.994097
661,637,3.30699,-0.00374429,0.35118,0.993223
667,631,3.30666,-0.00417289,0.351168,0.992881
673,625,3.30596,-0.00544678,0.351605,0.991803
679,619,3.30679,-0.00375995,0.351103,0.990758
685,613,3.30666,-0.004254,0.351106,0.99041
691,607,3.30535,-0.00539974,0.351521,0.98936
697,601,3.30711,-0.0037357,0.350607,0.988225
703,595,3.306165,-0.00484032,0.351023,0.987447
709,589,3.30559,-0.0058681,0.351584,0.98654
715,583,3.30721,-0.0037771,0.350092,0.986044
721,577,3.30521,-0.00497114,0.351374,0.984758
727,571,3.30754,-0.00319062,0.349588,0.984133
733,565,3.30632,-0.00439975,0.350022,0.98305
739,559,3.30644,-0.00534615,0.350013,0.98235
745,553,3.30707,-0.00383956,0.349525,0.98115
751,547,3.30576,-0.00552087,0.350387,0.979621
757,541,3.30737,-0.00333973,0.349115,0.979195
763,535,3.30609,-0.00499127,0.349898,0.977695
769,529,3.3066,-0.00716448,0.348171,0.976703
775,523,3.30733,-0.00565271,0.347674,0.975532
781,517,3.3066,-0.00410681,0.347215,0.974209
787,511,3.30718,-0.00715527,0.34676,0.972408
793,505,3.30601,-0.0095682,0.347188,0.971763
799,499,3.30745,-0.00653177,0.345926,0.970655
805,493,3.30715,-0.00759462,0.345837,0.969825
811,487,3.3082,-0.00193706,0.344124,0.967976
817,481,3.30832,-0.00616113,0.343226,0.967011
823,475,3.30794,-0.0052072,0.343581,0.964922
829,469,3.30775,-0.00487511,0.34315,0.963973
835,463,3.3087,-0.00322925,0.342229,0.96298
841,457,3.30763,-0.00896186,0.34223,0.961437
847,451,3.30961,-0.00368485,0.340052,0.959644
853,445,3.30766,-0.00626508,0.341246,0.958669
859,439,3.30868,-0.00788925,0.339989,0.956854
865,433,3.30889,-0.00613872,0.338724,0.955847
871,427,3.30875,-0.00389629,0.338655,0.95383
877,421,3.30855,-0.00360102,0.338241,0.952853
883,415,3.30945,-0.00791554,0.337334,0.951494
889,409,3.30865,-0.00669439,0.336914,0.949886
895,403,3.30926,-0.00434933,0.336432,0.948035
901,397,3.30838,-0.00548625,0.336427,0.94715
907,391,3.30913,-0.00754601,0.335529,0.944921
913,385,3.30999,-0.00462124,0.334631,0.94359
919,379,3.30839,-0.00635273,0.335452,0.942034
925,373,3.30952,-0.00836232,0.33372,0.940028
931,367,3.30869,-0.00810152,0.333713,0.938878
937,361,3.30885,-0.00580017,0.333239,0.936981
943,355,3.30966,-0.00786911,0.331919,0.934829
949,349,3.30837,-0.00959719,0.332751,0.93357
955,343,3.30893,-0.00569588,0.33144,0.931485
961,337,3.30988,-0.00232354,0.330257,0.929266
967,331,3.30836,-0.00954156,0.33095,0.927769
973,325,3.30816,-0.00631529,0.330474,0.925232
979,319,3.30925,-0.00430513,0.329176,0.923297
985,313,3.30949,-0.00745763,0.328699,0.921456
991,307,3.30747,-0.00832889,0.329518,0.919239
997,301,3.30879,-0.00477326,0.327806,0.917242
1003,295,3.30921,-0.0064856,0.326509,0.91537
1009,289,3.30864,-0.0074934,0.327378,0.913307
1015,283,3.30806,-0.00396002,0.326019,0.910918
1021,277,3.30824,-0.00776873,0.325541,0.908585
1027,271,3.30887,-0.0056996,0.324794,0.906581
1033,265,3.30767,-0.00389066,0.325019,0.904052
1039,259,3.30911,-0.00598368,0.323244,0.902026
1045,253,3.3075,-0.00693631,0.323739,0.90015
1051,247,3.30689,-0.00561142,0.323679,0.897106
1057,241,3.30669,-0.00644054,0.322795,0.894427
1063,235,3.30854,-0.00303431,0.320686,0.892386
1069,229,3.30743,-0.00870743,0.321462,0.889752
1075,223,3.30739,-0.00580018,0.320584,0.887
1081,217,3.30775,-0.00246452,0.319714,0.884558
1087,211,3.30747,-0.00669638,0.319252,0.881985
1093,205,3.3078,-0.00325408,0.318513,0.879619
1099,199,3.30745,-0.00755802,0.317929,0.876993
1105,193,3.30633,-0.00693151,0.31752,0.874886
1111,187,3.30634,-0.00411396,0.317065,0.871947
1117,181,3.30625,-0.00842401,0.316743,0.869335
1123,175,3.30505,-0.00992095,0.317395,0.866974
1129,169,3.3052,-0.00848459,0.315713,0.86348
1135,163,3.3069,-0.00545443,0.314007,0.861073
1141,157,3.30588,-0.00554112,0.314396,0.85839
1147,151,3.30517,-0.0079074,0.313953,0.855887
1153,145,3.30527,-0.00497926,0.313089,0.853084
1159,139,3.30546,-0.00367485,0.312235,0.850449
1165,133,3.30544,-0.00545259,0.311383,0.847145
1171,127,3.30595,-0.00346255,0.310526,0.844983
1177,121,3.30516,-0.00792198,0.310166,0.842338
1183,115,3.30431,-0.00358338,0.309667,0.836147
1189,109,3.30445,-0.00651112,0.308793,0.83624
1195,103,3.30467,-0.00497954,0.307942,0.833765
1201,97,3.30475,-0.00797495,0.307098,0.830923
1207,91,3.30498,-0.00592046,0.30626,0.828837
1213,85,3.30392,-0.00594364,0.306647,0.826307
1219,79,3.30342,-0.00749381,0.305797,0.823132
1225,73,3.30403,-0.0030487,0.304447,0.820198
1231,67,3.30374,-0.00885216,0.304128,0.817905
1237,61,3.30373,-0.00303993,0.302471,0.81454
1243,55,3.30378,-0.00682294,0.301611,0.812511
1249,49,3.30318,-0.00390987,0.301211,0.809517
1255,43,3.30313,-0.00226801,0.300375,0.80708
1261,37,3.30258,-0.0077547,0.300483,0.805047
1267,31,3.30154,-0.00468798,0.299139,0.801972
1273,25,3.30093,-0.0086971,0.298714,0.799771
1279,19,3.30064,-0.0101235,0.297488,0.796791
1285,13,3.30063,-0.00705478,0.296669,0.793997
1291,7,3.30147,-0.00337863,0.295035,0.791831
1295,3,3.30147,-0.00181349,0.294633,0.79061