File: hust_correlation_analysis/matrices/HUST_3-5_cycle_feature_matrix.csv
cycle_number,rul,voltage,current,capacity,charge_capacity
1,2659,3.32083,-0.00663498,0.34275,1.0631
14,2646,3.31054,-0.00909906,0.348413,1.05424
27,2633,3.31094,-0.00903556,0.34768,1.0521
40,2620,3.30973,-0.010946,0.348099,1.05067
53,2607,3.3106,-0.00990772,0.347377,1.04915
66,2594,3.30933,-0.0117235,0.347811,1.04781
79,2581,3.31083,-0.0104701,0.346654,1.04666
92,2568,3.31166,-0.00942704,0.345954,1.04517
105,2555,3.31122,-0.0104755,0.345943,1.04452
118,2542,3.31034,-0.0116258,0.34641,1.04369
131,2529,3.31133,-0.00993151,0.345685,1.04251
144,2516,3.31072,-0.0110941,0.346165,1.04197
157,2503,3.31162,-0.00944887,0.345376,1.04056
170,2490,3.31102,-0.0105445,0.346027,1.03977
183,2477,3.31068,-0.0111504,0.345936,1.03941
196,2464,3.31202,-0.00887022,0.344765,1.0388
209,2451,3.31134,-0.00997921,0.345227,1.03797
222,2438,3.31122,-0.0105518,0.34518,1.03748
235,2425,3.31068,-0.0123358,0.345619,1.03746
248,2412,3.30986,-0.0134136,0.346068,1.0366
261,2399,3.31145,-0.0100281,0.344461,1.03563
274,2386,3.311,-0.0106737,0.344463,1.03525
287,2373,3.31089,-0.0112764,0.34446,1.03489
300,2360,3.31186,-0.00951653,0.343762,1.03382
313,2347,3.31153,-0.0101754,0.343756,1.03341
326,2334,3.31076,-0.0112797,0.344235,1.03264
339,2321,3.31039,-0.0119461,0.344217,1.03218
352,2308,3.31177,-0.0101606,0.343536,1.03117
365,2295,3.31153,-0.0107194,0.343538,1.03085
378,2282,3.31114,-0.0111778,0.343536,1.03058
391,2269,3.31239,-0.00947382,0.342852,1.02949
404,2256,3.31199,-0.0100686,0.342856,1.02915
417,2243,3.31144,-0.0113097,0.343336,1.0283
430,2230,3.3113,-0.0112923,0.342829,1.02836
443,2217,3.31058,-0.0118758,0.343289,1.02783
456,2204,3.31209,-0.00959837,0.342111,1.02718
469,2191,3.31146,-0.0107976,0.342588,1.02632
482,2178,3.3112,-0.0113548,0.342597,1.02603
495,2165,3.31074,-0.0119568,0.342582,1.02569
508,2152,3.31205,-0.0102217,0.341897,1.02455
521,2139,3.31173,-0.0107244,0.341879,1.02421
534,2126,3.31125,-0.0118516,0.342379,1.02348
547,2113,3.31271,-0.00954517,0.341211,1.02284
560,2100,3.31234,-0.0101348,0.341232,1.02259
573,2087,3.31163,-0.0114097,0.341693,1.02164
586,2074,3.31131,-0.0120112,0.341689,1.02128
599,2061,3.31286,-0.00966746,0.340513,1.02065
612,2048,3.31253,-0.0101743,0.34051,1.02035
625,2035,3.31213,-0.0108277,0.340511,1.01997
638,2022,3.31151,-0.0119961,0.340971,1.01909
651,2009,3.31295,-0.00968269,0.339824,1.01854
664,1996,3.31244,-0.0108326,0.340287,1.01766
677,1983,3.31238,-0.0109526,0.339808,1.0175
690,1970,3.31159,-0.0121115,0.340266,1.01684
703,1957,3.31298,-0.0102891,0.339587,1.01584
716,1944,3.31251,-0.0108251,0.339558,1.01543
729,1931,3.3122,-0.0114661,0.339558,1.01505
742,1918,3.31339,-0.00958602,0.338859,1.014
755,1905,3.31295,-0.0103135,0.338844,1.01353
768,1892,3.31264,-0.0114943,0.338865,1.0129
781,1879,3.31184,-0.0121479,0.339323,1.0123
794,1866,3.31291,-0.0103428,0.338634,1.01123
807,1853,3.31259,-0.0109085,0.338621,1.01086
820,1840,3.31167,-0.0121686,0.339087,1.00994
833,1827,3.3131,-0.00970247,0.337899,1.00933
846,1814,3.31243,-0.010991,0.338383,1.00844
859,1801,3.3121,-0.011716,0.338376,1.00799
872,1788,3.3135,-0.00972193,0.337217,1.00719
885,1775,3.31329,-0.0103599,0.337212,1.00679
898,1762,3.31244,-0.0116424,0.337681,1.00586
911,1749,3.3136,-0.00977279,0.336968,1.00474
924,1736,3.31268,-0.0110924,0.337455,1.00384
937,1723,3.31237,-0.0116512,0.337476,1.00359
950,1710,3.31383,-0.00982908,0.33628,1.00257
963,1697,3.31272,-0.0110758,0.337249,1.00156
976,1684,3.31226,-0.011746,0.337209,1.00129
989,1671,3.31212,-0.012313,0.336736,1.00089
1002,1658,3.31283,-0.0106209,0.336405,0.999447
1015,1645,3.31252,-0.0116936,0.336512,0.998874
1028,1632,3.31409,-0.00922835,0.336041,0.998291
1041,1619,3.31316,-0.0105791,0.335807,0.997318
1054,1606,3.31213,-0.0118624,0.336287,0.99641
1067,1593,3.31332,-0.00995647,0.335696,0.995329
1080,1580,3.31295,-0.011219,0.335603,0.994634
1093,1567,3.31241,-0.0118285,0.335597,0.994275
1106,1554,3.31313,-0.0106454,0.335399,0.992636
1119,1541,3.31265,-0.0112904,0.335389,0.992243
1132,1528,3.31187,-0.0125213,0.335873,0.991375
1145,1515,3.3137,-0.0099832,0.334215,0.990964
1158,1502,3.31288,-0.0112739,0.334682,0.990011
1171,1489,3.31213,-0.012629,0.335139,0.988982
1184,1476,3.31312,-0.0106491,0.334458,0.987977
1197,1463,3.31251,-0.0114583,0.334424,0.98738
1210,1450,3.31182,-0.0127393,0.334905,0.986485
1223,1437,3.31292,-0.010829,0.334189,0.985074
1236,1424,3.3124,-0.0120295,0.334204,0.984655
1249,1411,3.31332,-0.0101507,0.334099,0.983535
1262,1398,3.31262,-0.0113655,0.334002,0.982692
1275,1385,3.31211,-0.0126795,0.334013,0.981956
1288,1372,3.31327,-0.0108021,0.333323,0.980832
1301,1359,3.31221,-0.0120913,0.33382,0.979953
1314,1346,3.31319,-0.0102887,0.333128,0.97877
1327,1333,3.31227,-0.0121666,0.333656,0.977639
1340,1320,3.3118,-0.0127464,0.333584,0.977081
1353,1307,3.31236,-0.0109828,0.333389,0.975731
1366,1294,3.31133,-0.0122615,0.333855,0.974742
1379,1281,3.31238,-0.0109805,0.333198,0.973353
1392,1268,3.31135,-0.0123595,0.33367,0.972329
1405,1255,3.31201,-0.0104309,0.332983,0.971204
1418,1242,3.31111,-0.0117449,0.333467,0.970238
1431,1229,3.31025,-0.0130471,0.333448,0.969439
1444,1216,3.31085,-0.0118233,0.333274,0.967783
1457,1203,3.31196,-0.010466,0.3326,0.966355
1470,1190,3.31065,-0.0118409,0.333089,0.96537
1483,1177,3.31161,-0.00997085,0.332411,0.964209
1496,1164,3.31033,-0.0119056,0.333411,0.962778
1509,1151,3.30929,-0.013235,0.333368,0.961893
1522,1138,3.30984,-0.0120134,0.333198,0.960193
1535,1125,3.31029,-0.0107033,0.333014,0.958477
1548,1112,3.30949,-0.0119505,0.333591,0.957735
1561,1099,3.30997,-0.0107463,0.332834,0.956018
1574,1086,3.30883,-0.0128126,0.33341,0.954664
1587,1073,3.30933,-0.0121232,0.33319,0.952694
1600,1060,3.30794,-0.0134934,0.333674,0.951666
1613,1047,3.30778,-0.0128969,0.334032,0.949425
1626,1034,3.30853,-0.0115535,0.333343,0.947864
1639,1021,3.30722,-0.0137519,0.333856,0.946454
1652,1008,3.30752,-0.0123593,0.334406,0.944722
1665,995,3.30817,-0.0109801,0.33301,0.943218
1678,982,3.30588,-0.0139104,0.334574,0.941063
1691,969,3.30656,-0.0125634,0.333909,0.939366
1704,956,3.30675,-0.0118002,0.333755,0.937489
1717,943,3.30676,-0.0106746,0.333608,0.935617
1730,930,3.30557,-0.0115746,0.333644,0.933904
1743,917,3.3058,-0.0161524,0.332953,0.93172
1756,904,3.30598,-0.0155494,0.332807,0.929558
1769,891,3.30632,-0.0112542,0.331582,0.927206
1782,878,3.30448,-0.012371,0.332196,0.925213
1795,865,3.30457,-0.0170575,0.331454,0.922966
1808,852,3.30484,-0.0145976,0.33079,0.920761
1821,839,3.30524,-0.0104125,0.329664,0.918297
1834,826,3.30549,-0.0156424,0.328913,0.915856
1847,813,3.30552,-0.0132452,0.328218,0.913515
1860,800,3.30604,-0.00951686,0.327046,0.910946
1873,787,3.30358,-0.0192172,0.328096,0.909239
1886,774,3.30377,-0.0171804,0.327446,0.906828
1899,761,3.30409,-0.0146833,0.326767,0.904559
1912,748,3.30427,-0.0105734,0.325553,0.902066
1925,735,3.30415,-0.0159474,0.324884,0.89952
1938,722,3.3045,-0.0116067,0.323657,0.897109
1951,709,3.30476,-0.00978579,0.323594,0.894536
1964,696,3.30412,-0.0154551,0.322871,0.891688
1977,683,3.30433,-0.0128552,0.322214,0.889501
1990,670,3.30224,-0.0147773,0.322744,0.887056
2003,657,3.30205,-0.019656,0.322082,0.884852
2016,644,3.30244,-0.015904,0.320879,0.882148
2029,631,3.30241,-0.0122229,0.320212,0.87923
2042,618,3.30242,-0.0190259,0.320199,0.877304
2055,605,3.30236,-0.0153713,0.318888,0.874361
2068,592,3.30304,-0.0127677,0.317678,0.872291
2081,579,3.3023,-0.0185688,0.317541,0.869419
2094,566,3.30263,-0.0166666,0.316903,0.867128
2107,553,3.30281,-0.0120527,0.315671,0.864513
2120,540,3.30289,-0.0177569,0.315041,0.862042
2133,527,3.3022,-0.0161167,0.314913,0.859064
2146,514,3.30285,-0.0133306,0.313713,0.857117
2159,501,3.30089,-0.0132733,0.314442,0.854629
2172,488,3.29986,-0.0213355,0.314159,0.851861
2185,475,3.30041,-0.0172037,0.312965,0.84931
2198,462,3.30045,-0.0147133,0.312293,0.846938
2211,449,3.30028,-0.0204578,0.312394,0.84451
2224,436,3.3003,-0.0198138,0.311557,0.842323
2237,423,3.30026,-0.0191259,0.31147,0.840219
2250,410,3.3001,-0.0152135,0.310819,0.837309
2263,397,3.30071,-0.0124505,0.309606,0.835247
2276,384,3.3009,-0.0151781,0.307879,0.832174
2289,371,3.30113,-0.0103379,0.306642,0.829795
2302,358,3.30036,-0.0185865,0.307141,0.827127
2315,345,3.29854,-0.0196506,0.30704,0.825277
2328,332,3.29871,-0.017115,0.306443,0.822903
2341,319,3.29881,-0.0208953,0.305245,0.820372
2354,306,3.29882,-0.0163662,0.304043,0.817794
2367,293,3.29944,-0.0135007,0.302807,0.815777
2380,280,3.29938,-0.0127796,0.302723,0.813648
2393,267,3.29964,-0.00994741,0.302079,0.811423
2406,254,3.29688,-0.0201277,0.302646,0.809117
2419,241,3.29701,-0.0173522,0.302001,0.806861
2432,228,3.29741,-0.0132283,0.300812,0.804202
2445,215,3.29683,-0.020773,0.30073,0.802075
2458,202,3.29703,-0.0159189,0.299526,0.799682
2471,189,3.29761,-0.0109579,0.297736,0.797438
2484,176,3.29741,-0.0164955,0.297085,0.795159
2497,163,3.29537,-0.0163813,0.297096,0.792764
2510,150,3.29598,-0.0135386,0.295866,0.790606
2523,137,3.2957,-0.0191045,0.295233,0.788373
2536,124,3.29623,-0.0160682,0.294027,0.786392
2549,111,3.29645,-0.0111463,0.292815,0.783946
2562,98,3.29648,-0.0185773,0.292204,0.782233
2575,85,3.29416,-0.0179015,0.292178,0.779947
2588,72,3.29419,-0.0150579,0.291543,0.777701
2601,59,3.29523,-0.0110512,0.289763,0.776254
2614,46,3.29187,-0.0230904,0.290882,0.774364
2627,33,3.29292,-0.0157659,0.2886,0.772182
2640,20,3.29277,-0.0129565,0.287943,0.769842
2653,7,3.29259,-0.0198896,0.287308,0.76832
2657,3,3.29174,-0.0193616,0.287322,0.767334