File: hust_correlation_analysis/matrices/HUST_5-1_cycle_feature_matrix.csv
cycle_number,rul,voltage,current,capacity,charge_capacity
1,2509,3.3251,-0.00576148,0.291142,1.03657
13,2497,3.31345,-0.00751508,0.295686,1.02793
25,2485,3.31469,-0.0076623,0.294799,1.02573
37,2473,3.31339,-0.00949165,0.29564,1.02435
49,2461,3.31439,-0.00778661,0.294775,1.02318
61,2449,3.31346,-0.00902173,0.294785,1.02257
73,2437,3.31482,-0.00777692,0.294107,1.02111
85,2425,3.31458,-0.00889653,0.293901,1.02051
97,2413,3.31406,-0.0103494,0.294321,1.01954
109,2401,3.31569,-0.00779046,0.292806,1.01918
121,2389,3.31481,-0.00908621,0.293227,1.0183
133,2377,3.31433,-0.0103857,0.293435,1.01739
145,2365,3.3154,-0.00781081,0.292136,1.01684
157,2353,3.31516,-0.00901576,0.292119,1.01616
169,2341,3.3142,-0.009702,0.292535,1.01558
181,2329,3.31575,-0.00717694,0.291224,1.01496
193,2317,3.31525,-0.00847742,0.29164,1.01405
205,2305,3.31528,-0.00849041,0.291638,1.01429
217,2293,3.31502,-0.00972016,0.291641,1.0134
229,2281,3.31474,-0.0103519,0.291331,1.01306
241,2269,3.31387,-0.0104848,0.292073,1.01281
253,2257,3.31538,-0.00793958,0.290781,1.01228
265,2245,3.31494,-0.00856813,0.29078,1.01195
277,2233,3.31489,-0.00980364,0.290773,1.01127
289,2221,3.31438,-0.0104479,0.290778,1.01094
301,2209,3.31616,-0.0079756,0.289475,1.01035
313,2197,3.31622,-0.00855282,0.289475,1.01004
325,2185,3.31583,-0.00981315,0.289472,1.00937
337,2173,3.31517,-0.0105455,0.28989,1.00877
349,2161,3.31629,-0.00799267,0.28858,1.00817
361,2149,3.31597,-0.00923595,0.288579,1.00751
373,2137,3.31624,-0.00976551,0.288159,1.00743
385,2125,3.31578,-0.0105233,0.288574,1.00681
397,2113,3.3172,-0.00860434,0.287272,1.00589
409,2101,3.31719,-0.00914626,0.286813,1.00582
421,2089,3.31639,-0.00993129,0.287259,1.00516
433,2077,3.31808,-0.0078449,0.285947,1.0043
445,2065,3.31756,-0.00866066,0.285946,1.00385
457,2053,3.31732,-0.00921093,0.285949,1.00357
469,2041,3.31683,-0.00991878,0.286366,1.00278
481,2029,3.31641,-0.010544,0.286361,1.00264
493,2017,3.31825,-0.00798529,0.285065,1.00209
505,2005,3.31805,-0.00924427,0.285062,1.0014
517,1993,3.31712,-0.00995194,0.285482,1.00083
529,1981,3.31934,-0.00798405,0.283754,1.00012
541,1969,3.31836,-0.00865773,0.284179,0.99957
553,1957,3.31798,-0.00992896,0.284184,0.998855
565,1945,3.31833,-0.00982919,0.28375,0.999114
577,1933,3.3191,-0.00799298,0.283257,0.997651
589,1921,3.3186,-0.00923663,0.28325,0.996975
601,1909,3.31922,-0.00980072,0.282828,0.996851
613,1897,3.3177,-0.0105114,0.283236,0.996244
625,1885,3.3194,-0.00835059,0.281929,0.995435
637,1873,3.31982,-0.00856289,0.281517,0.995518
649,1861,3.31851,-0.0099431,0.282345,0.994368
661,1849,3.31845,-0.0105571,0.28145,0.994497
673,1837,3.32028,-0.0078957,0.28063,0.99372
685,1825,3.31976,-0.00921375,0.28104,0.992796
697,1813,3.31879,-0.0100179,0.281454,0.992158
709,1801,3.32031,-0.00799349,0.280143,0.991256
721,1789,3.32033,-0.0084935,0.279732,0.991202
733,1777,3.31848,-0.0141319,0.281139,0.990789
745,1765,3.31872,-0.0106186,0.280555,0.989633
757,1753,3.32071,-0.00810604,0.279247,0.988988
769,1741,3.32026,-0.00931736,0.279449,0.988367
781,1729,3.31956,-0.0099705,0.279102,0.988023
793,1717,3.31876,-0.0106084,0.279673,0.987488
805,1705,3.32078,-0.00927479,0.27836,0.986219
817,1693,3.31996,-0.0101393,0.279309,0.985603
829,1681,3.32127,-0.00810953,0.277473,0.984667
841,1669,3.32023,-0.00940256,0.277885,0.983763
853,1657,3.31991,-0.0106415,0.27788,0.98308
865,1645,3.32101,-0.00878868,0.276985,0.981871
877,1633,3.32036,-0.00942645,0.277395,0.981311
889,1621,3.31994,-0.0107012,0.277387,0.980615
901,1609,3.32108,-0.00814231,0.2765,0.979816
913,1597,3.32059,-0.00944668,0.276494,0.979088
925,1585,3.32007,-0.0101534,0.276495,0.97873
937,1573,3.3212,-0.00881285,0.275593,0.977212
949,1561,3.32019,-0.010191,0.276006,0.976282
961,1549,3.32166,-0.00810545,0.274694,0.975368
973,1537,3.32131,-0.00887041,0.274698,0.974981
985,1525,3.32035,-0.0101266,0.275631,0.974101
997,1513,3.32188,-0.00821096,0.273787,0.973081
1009,1501,3.32071,-0.0136089,0.273974,0.971228
1021,1489,3.32195,-0.0109559,0.272466,0.97063
1033,1477,3.32102,-0.0126587,0.272875,0.969758
1045,1465,3.32035,-0.0153105,0.273297,0.969181
1057,1453,3.32175,-0.00996108,0.272087,0.967701
1069,1441,3.3218,-0.00953957,0.271157,0.966857
1081,1429,3.32071,-0.0109381,0.271571,0.965921
1093,1417,3.32156,-0.0146674,0.270256,0.964229
1105,1405,3.32152,-0.00864639,0.270254,0.963845
1117,1393,3.32255,-0.010562,0.268527,0.962049
1129,1381,3.32198,-0.012986,0.268934,0.961813
1141,1369,3.32124,-0.012702,0.268927,0.960683
1153,1357,3.32222,-0.0106089,0.268019,0.959565
1165,1345,3.32138,-0.00865416,0.267604,0.958259
1177,1333,3.32307,-0.0133436,0.266294,0.957332
1189,1321,3.32216,-0.0130598,0.266289,0.956213
1201,1309,3.32125,-0.0109742,0.265881,0.95497
1213,1297,3.322,-0.0153931,0.266019,0.954594
1225,1285,3.32342,-0.0105517,0.264297,0.952771
1237,1273,3.32219,-0.0180788,0.264707,0.952197
1249,1261,3.32179,-0.0176698,0.264296,0.951306
1261,1249,3.32201,-0.0137211,0.26374,0.950343
1273,1237,3.32328,-0.00826506,0.261947,0.948844
1285,1225,3.32282,-0.0079795,0.261954,0.947754
1297,1213,3.32214,-0.00870136,0.261956,0.947368
1309,1201,3.32346,-0.0123495,0.260653,0.945775
1321,1189,3.32241,-0.014806,0.261057,0.945573
1333,1177,3.32425,-0.0083037,0.258946,0.943536
1345,1165,3.32293,-0.00797486,0.259348,0.942262
1357,1153,3.32224,-0.0161286,0.259339,0.941521
1369,1141,3.32278,-0.0140798,0.258432,0.9404
1381,1129,3.32309,-0.0120199,0.257624,0.939524
1393,1117,3.32362,-0.00837741,0.256718,0.937717
1405,1105,3.32264,-0.0154898,0.256712,0.936283
1417,1093,3.3237,-0.0134322,0.255806,0.935168
1429,1081,3.32271,-0.0131475,0.2558,0.934026
1441,1069,3.32144,-0.0127911,0.256198,0.932752
1453,1057,3.32232,-0.012442,0.255687,0.931586
1465,1045,3.32244,-0.00855485,0.254493,0.930574
1477,1033,3.32286,-0.0083818,0.254377,0.929356
1489,1021,3.32185,-0.0137709,0.25397,0.92801
1501,1009,3.32248,-0.013565,0.253453,0.927003
1513,997,3.32166,-0.0132676,0.253446,0.9256
1525,985,3.32219,-0.0119457,0.252925,0.923879
1537,973,3.32102,-0.0133559,0.253728,0.922783
1549,961,3.32094,-0.0133105,0.253086,0.921313
1561,949,3.32019,-0.0134273,0.253081,0.919737
1573,937,3.32086,-0.0174259,0.252274,0.918215
1585,925,3.32156,-0.017225,0.251253,0.917455
1597,913,3.32037,-0.0139998,0.250848,0.915185
1609,901,3.32122,-0.0109546,0.249933,0.913255
1621,889,3.31987,-0.0130525,0.25073,0.911816
1633,877,3.32035,-0.0162812,0.249415,0.91047
1645,865,3.31968,-0.014629,0.249526,0.909141
1657,853,3.32101,-0.00861837,0.247407,0.906709
1669,841,3.3192,-0.00898878,0.24821,0.904876
1681,829,3.31958,-0.014742,0.247286,0.903372
1693,817,3.32084,-0.0114429,0.245963,0.901721
1705,805,3.31916,-0.0107206,0.245956,0.899514
1717,793,3.31902,-0.00759442,0.245434,0.897399
1729,781,3.32018,-0.00613711,0.244509,0.895908
1741,769,3.31759,-0.0163769,0.245701,0.89384
1753,757,3.31749,-0.0184717,0.245491,0.892413
1765,745,3.31898,-0.0117875,0.243849,0.890412
1777,733,3.31731,-0.0128771,0.244253,0.888432
1789,721,3.31817,-0.00845759,0.242923,0.886024
1801,709,3.31794,-0.0144566,0.242391,0.88405
1813,697,3.31645,-0.0155378,0.242789,0.882269
1825,685,3.3164,-0.0110633,0.241853,0.879649
1837,673,3.31727,-0.00785717,0.240518,0.877905
1849,661,3.31752,-0.014586,0.240048,0.875887
1861,649,3.3158,-0.0137864,0.239984,0.873694
1873,637,3.31583,-0.0111895,0.239048,0.871452
1885,625,3.31609,-0.0160402,0.238114,0.869247
1897,613,3.31718,-0.0127842,0.236932,0.867525
1909,601,3.31642,-0.0109383,0.236667,0.864503
1921,589,3.31392,-0.0141122,0.237447,0.862625
1933,577,3.3152,-0.00955648,0.236097,0.860188
1945,565,3.31547,-0.016379,0.235158,0.858385
1957,553,3.31552,-0.0138314,0.234617,0.85589
1969,541,3.31614,-0.00733665,0.23286,0.853242
1981,529,3.31416,-0.0123361,0.234233,0.851658
1993,517,3.31413,-0.0154233,0.232717,0.849202
2005,505,3.31477,-0.0128618,0.231776,0.846915
2017,493,3.31342,-0.0177992,0.232932,0.845166
2029,481,3.3151,-0.0097191,0.230279,0.842466
2041,469,3.31372,-0.0129292,0.230938,0.840212
2053,457,3.31391,-0.0179815,0.229991,0.838021
2065,445,3.31244,-0.0192205,0.229987,0.836193
2077,433,3.31268,-0.0181705,0.22945,0.834307
2089,421,3.31355,-0.0162592,0.22742,0.831071
2101,409,3.31439,-0.00747456,0.227233,0.829035
2113,397,3.31201,-0.0167918,0.227139,0.827003
2125,385,3.31329,-0.0160415,0.226044,0.824739
2137,373,3.31292,-0.00918822,0.224805,0.822327
2149,361,3.3126,-0.0166397,0.224423,0.820195
2161,349,3.31202,-0.0181021,0.224116,0.817873
2173,337,3.3122,-0.0173662,0.223568,0.815816
2185,325,3.31271,-0.0125827,0.222189,0.813331
2197,313,3.31277,-0.0203037,0.221644,0.811178
2209,301,3.31216,-0.0135278,0.220384,0.808677
2221,289,3.31266,-0.0105782,0.219415,0.806475
2233,277,3.31314,-0.00772093,0.218449,0.80424
2245,265,3.31289,-0.0119759,0.217471,0.801184
2257,253,3.31071,-0.0153595,0.218294,0.799182
2269,241,3.31119,-0.0103586,0.216908,0.796898
2281,229,3.31165,-0.017874,0.215932,0.795143
2293,217,3.31195,-0.0170696,0.215364,0.793115
2305,205,3.31237,-0.0142726,0.214383,0.790801
2317,193,3.31308,-0.00920908,0.212988,0.788336
2329,181,3.31071,-0.0125661,0.213808,0.786568
2341,169,3.31136,-0.0147639,0.211993,0.783536
2353,157,3.31157,-0.0140345,0.21142,0.78146
2365,145,3.31212,-0.0110024,0.210434,0.779232
2377,133,3.31264,-0.00811177,0.209441,0.776933
2389,121,3.30963,-0.0138375,0.211088,0.775063
2401,109,3.30966,-0.0196294,0.210091,0.773016
2413,97,3.31072,-0.0160717,0.208675,0.770923
2425,85,3.30943,-0.0200108,0.209026,0.768751
2437,73,3.31018,-0.0151858,0.207617,0.766161
2449,61,3.31108,-0.0165538,0.205396,0.763722
2461,49,3.311,-0.020161,0.205632,0.762074
2473,37,3.30912,-0.019364,0.205627,0.75985
2485,25,3.30906,-0.0252295,0.204631,0.757596
2497,13,3.30973,-0.0168653,0.204459,0.756046
2507,3,3.31006,-0.0227638,0.203461,0.753793