File: hust_correlation_analysis/matrices/HUST_8-5_cycle_feature_matrix.csv
cycle_number,rul,voltage,current,capacity,charge_capacity
1,1350,3.30959,-0.00828898,0.343781,1.02728
8,1343,3.29858,-0.0104163,0.349026,1.02152
15,1336,3.3003,-0.00861363,0.347459,1.02079
22,1329,3.30024,-0.00976175,0.347455,1.0201
29,1322,3.30176,-0.00809715,0.346336,1.01908
36,1315,3.30208,-0.00860969,0.34587,1.01895
43,1308,3.3015,-0.00926429,0.346303,1.01829
50,1301,3.30158,-0.00996941,0.345839,1.01798
57,1294,3.30263,-0.00812627,0.345196,1.01694
64,1287,3.30274,-0.00874956,0.345184,1.01652
71,1280,3.30231,-0.00946538,0.345186,1.0161
78,1273,3.30207,-0.00990307,0.345188,1.01583
85,1266,3.30175,-0.0105063,0.345181,1.01542
92,1259,3.30312,-0.00816604,0.344084,1.01486
99,1252,3.30297,-0.00876627,0.344098,1.01428
106,1245,3.30303,-0.00927621,0.344084,1.01418
113,1238,3.30292,-0.00992205,0.344088,1.01379
120,1231,3.30276,-0.0104843,0.344096,1.01345
127,1224,3.30378,-0.00822505,0.343446,1.01266
134,1217,3.30419,-0.008714,0.342992,1.01251
141,1210,3.30392,-0.00928917,0.343008,1.0122
148,1203,3.30363,-0.00994231,0.343455,1.01162
155,1196,3.30355,-0.00985783,0.343002,1.01183
162,1189,3.30272,-0.0104687,0.343471,1.01133
169,1182,3.30413,-0.00816724,0.342377,1.01073
176,1175,3.30437,-0.00876286,0.342375,1.01038
183,1168,3.30404,-0.00871364,0.342373,1.01041
190,1161,3.30423,-0.00938244,0.342313,1.00995
197,1154,3.30423,-0.00993488,0.342363,1.00961
204,1147,3.30383,-0.00992861,0.342365,1.00963
211,1140,3.30346,-0.0104857,0.342469,1.00927
218,1133,3.30575,-0.00757659,0.340808,1.0092
225,1126,3.30543,-0.00814261,0.341236,1.00886
232,1119,3.30495,-0.0080989,0.341652,1.00836
239,1112,3.3051,-0.00825298,0.341211,1.00849
246,1105,3.30488,-0.00879676,0.34121,1.00811
253,1098,3.30446,-0.0094518,0.341215,1.00772
260,1091,3.30481,-0.00994187,0.340772,1.00761
267,1084,3.30479,-0.010049,0.340755,1.0075
274,1077,3.30436,-0.0105902,0.340758,1.00717
281,1070,3.30599,-0.00822895,0.339687,1.00668
288,1063,3.30571,-0.00825305,0.339673,1.00663
295,1056,3.30559,-0.00882185,0.339665,1.00625
302,1049,3.30604,-0.00929863,0.339225,1.00616
309,1042,3.30603,-0.00990328,0.339233,1.00577
316,1035,3.30566,-0.00986905,0.339214,1.00577
323,1028,3.3053,-0.0104874,0.339238,1.00542
330,1021,3.30705,-0.00820898,0.338152,1.00484
337,1014,3.3072,-0.00874954,0.338138,1.00448
344,1007,3.30709,-0.00940061,0.338147,1.00405
351,1000,3.30711,-0.009298,0.337699,1.0043
358,993,3.30614,-0.00995808,0.338151,1.00374
365,986,3.30613,-0.0106035,0.338154,1.00331
372,979,3.30799,-0.00815701,0.337058,1.00284
379,972,3.30774,-0.00878056,0.337063,1.00244
386,965,3.30718,-0.00878899,0.337061,1.00243
393,958,3.30718,-0.00995035,0.337138,1.0017
400,951,3.30711,-0.0105696,0.337072,1.00133
407,944,3.30862,-0.00763881,0.335983,1.00114
414,937,3.30847,-0.00825933,0.335986,1.00075
421,930,3.30789,-0.00878168,0.335999,1.00046
428,923,3.30766,-0.00941036,0.335972,0.99998
435,916,3.30776,-0.0100103,0.335975,0.999342
442,909,3.30754,-0.010545,0.335969,0.999247
449,902,3.30883,-0.00820278,0.334501,0.998651
456,895,3.30804,-0.0088605,0.335316,0.998071
463,888,3.30822,-0.00942811,0.334878,0.997873
470,881,3.30825,-0.00992383,0.334879,0.997553
477,874,3.3079,-0.0105847,0.334873,0.997114
484,867,3.30918,-0.0088262,0.334245,0.996054
491,860,3.30884,-0.00938191,0.334241,0.995694
498,853,3.30893,-0.00945152,0.33378,0.995763
505,846,3.30845,-0.0106387,0.33423,0.994838
512,839,3.30987,-0.00818741,0.333157,0.994383
519,832,3.3094,-0.00881012,0.333143,0.993947
526,825,3.30902,-0.00942352,0.333148,0.993566
533,818,3.30864,-0.0107007,0.333626,0.992663
540,811,3.31081,-0.0082086,0.332096,0.99234
547,804,3.31029,-0.00883197,0.332091,0.991941
554,797,3.30946,-0.0100186,0.332545,0.99103
561,790,3.30889,-0.0105948,0.332644,0.990659
568,783,3.31055,-0.00826073,0.331461,0.99007
575,776,3.31055,-0.00932908,0.331467,0.989404
582,769,3.30957,-0.0101164,0.331958,0.988743
589,762,3.30909,-0.010692,0.331906,0.988348
596,755,3.31023,-0.00891648,0.331267,0.987226
603,748,3.30988,-0.00944588,0.331258,0.986872
610,741,3.30949,-0.0107726,0.33126,0.98601
617,734,3.31094,-0.00829594,0.330174,0.985501
624,727,3.31063,-0.00894111,0.330173,0.985081
631,720,3.30996,-0.0100975,0.330617,0.984182
638,713,3.31123,-0.00827781,0.329534,0.983235
645,706,3.31012,-0.00957243,0.330431,0.982119
652,699,3.30974,-0.0108265,0.330439,0.981325
659,692,3.31106,-0.00892671,0.329355,0.980449
666,685,3.31055,-0.00950936,0.329356,0.980064
673,678,3.30989,-0.0107611,0.329789,0.979062
680,671,3.3106,-0.00901718,0.329157,0.977936
687,664,3.31016,-0.0102507,0.329252,0.977137
694,657,3.31158,-0.00785514,0.328077,0.976554
701,650,3.31043,-0.0099424,0.32897,0.974893
708,643,3.3094,-0.0106262,0.328976,0.974459
715,636,3.3106,-0.00896296,0.328333,0.973245
722,629,3.30994,-0.0103006,0.328804,0.972377
729,622,3.31137,-0.00842423,0.327241,0.971432
736,615,3.31044,-0.00974517,0.327683,0.97039
743,608,3.31136,-0.00854624,0.327059,0.968905
750,601,3.3108,-0.00970251,0.327068,0.968168
757,594,3.31187,-0.00640045,0.325961,0.966811
764,587,3.31081,-0.0143388,0.32642,0.965535
771,580,3.31221,-0.0108551,0.324884,0.964497
778,573,3.31124,-0.00979746,0.3249,0.962637
785,566,3.31285,-0.00630227,0.323356,0.961576
792,559,3.311,-0.014434,0.324258,0.960015
799,552,3.3123,-0.0063807,0.323181,0.959083
806,545,3.31167,-0.00981804,0.322623,0.95726
813,538,3.31217,-0.00710481,0.321656,0.955447
820,531,3.31118,-0.0143942,0.321638,0.953235
827,524,3.31263,-0.010035,0.31967,0.953043
834,517,3.31156,-0.0104147,0.320108,0.951354
841,510,3.31283,-0.00696986,0.318581,0.950267
848,503,3.31132,-0.014962,0.319027,0.948954
855,496,3.31233,-0.0122213,0.317949,0.947265
862,489,3.31325,-0.00797097,0.316884,0.945281
869,482,3.31259,-0.00820638,0.316437,0.94396
876,475,3.31264,-0.0116542,0.315803,0.942144
883,468,3.31214,-0.0118372,0.315336,0.940801
890,461,3.31252,-0.00919634,0.31474,0.938991
897,454,3.31324,-0.00647645,0.313659,0.937259
904,447,3.31199,-0.0145373,0.314093,0.935924
911,440,3.31226,-0.0109075,0.313464,0.933353
918,433,3.31352,-0.00639468,0.311516,0.93177
925,426,3.31168,-0.013583,0.311965,0.929763
932,419,3.31259,-0.0108632,0.310893,0.928034
939,412,3.31305,-0.00706015,0.309835,0.92571
946,405,3.31153,-0.0151579,0.310264,0.924415
953,398,3.31192,-0.0114626,0.309196,0.921995
960,391,3.31286,-0.00770806,0.307708,0.919794
967,384,3.31347,-0.0110519,0.30663,0.918174
974,377,3.31182,-0.0121997,0.30706,0.915994
981,370,3.31244,-0.00939295,0.30599,0.914295
988,363,3.3129,-0.0124188,0.304931,0.9116
995,356,3.3137,-0.00808252,0.303432,0.909696
1002,349,3.31186,-0.0106497,0.304288,0.907808
1009,342,3.31251,-0.0131464,0.302808,0.905599
1016,335,3.31284,-0.00932811,0.301751,0.903255
1023,328,3.31305,-0.00717706,0.301119,0.900977
1030,321,3.31329,-0.0119132,0.30044,0.898421
1037,314,3.31354,-0.00812964,0.299459,0.896037
1044,307,3.31211,-0.00904622,0.299448,0.894149
1051,300,3.31204,-0.0132941,0.298821,0.891895
1058,293,3.3125,-0.0100058,0.297768,0.889168
1065,286,3.31245,-0.00780995,0.297147,0.887198
1072,279,3.3124,-0.0126255,0.296531,0.884369
1079,272,3.31243,-0.00880506,0.295486,0.88195
1086,265,3.31263,-0.0119409,0.294443,0.879251
1093,258,3.31261,-0.00718759,0.293391,0.876069
1100,251,3.3127,-0.0130368,0.29277,0.874191
1107,244,3.3126,-0.00986128,0.292154,0.871223
1114,237,3.31316,-0.00655885,0.290694,0.868655
1121,230,3.31276,-0.00980407,0.290067,0.865964
1128,223,3.31054,-0.0131381,0.290922,0.863434
1135,216,3.30968,-0.0164591,0.290319,0.860534
1142,209,3.31028,-0.0115374,0.288849,0.857553
1149,202,3.31007,-0.0148238,0.287803,0.854747
1156,195,3.3096,-0.0133154,0.287614,0.85196
1163,188,3.30967,-0.00999926,0.286569,0.849146
1170,181,3.30927,-0.0143746,0.285953,0.846905
1177,174,3.30981,-0.0093247,0.28479,0.843917
1184,167,3.30982,-0.0132601,0.283887,0.840769
1191,160,3.31128,-0.0083902,0.28232,0.837846
1198,153,3.31098,-0.0117499,0.281194,0.835011
1205,146,3.30902,-0.0116664,0.281175,0.832383
1212,139,3.31084,-0.0134225,0.279546,0.829612
1219,132,3.31063,-0.0101231,0.278591,0.826772
1226,125,3.31019,-0.00677281,0.2779,0.82364
1233,118,3.310302,-0.011752,0.276864,0.821365
1240,111,3.31033,-0.0067168,0.275418,0.81834
1247,104,3.30927,-0.0109075,0.275684,0.814833
1254,97,3.3096,-0.0142038,0.27379,0.812205
1261,90,3.30909,-0.0125582,0.273186,0.80959
1268,83,3.30887,-0.00756,0.272259,0.806388
1275,76,3.30903,-0.0124878,0.271169,0.804085
1282,69,3.3085,-0.0109404,0.270566,0.801402
1289,62,3.30869,-0.012698,0.26893,0.798341
1296,55,3.30884,-0.00746486,0.267695,0.795348
1303,48,3.30806,-0.012647,0.2671,0.792758
1310,41,3.30862,-0.00915327,0.265664,0.790102
1317,34,3.30809,-0.00756054,0.265077,0.787455
1324,27,3.30784,-0.0092357,0.263673,0.784492
1331,20,3.30748,-0.0143751,0.262648,0.782048
1338,13,3.30716,-0.00845856,0.26123,0.779362
1345,6,3.30672,-0.0120354,0.260244,0.776524
1348,3,3.30551,-0.0134954,0.260251,0.775761