File: hust_correlation_analysis/matrices/HUST_9-7_cycle_feature_matrix.csv
cycle_number,rul,voltage,current,capacity,charge_capacity
1,2014,3.3039,0.0202774,0.332623,1.05434
11,2004,3.29786,-0.00867381,0.342427,1.03939
21,1994,3.30163,-0.00745638,0.338732,1.04419
31,1984,3.30254,-0.00955951,0.337245,1.04584
41,1974,3.30312,-0.00956912,0.336821,1.04618
51,1964,3.3049,-0.00793292,0.334851,1.04542
61,1954,3.30407,-0.00864037,0.335255,1.04476
71,1944,3.30576,-0.00732146,0.333725,1.0438
81,1934,3.30575,-0.00799697,0.333717,1.04334
91,1924,3.30526,-0.00956007,0.334145,1.04219
101,1914,3.30672,-0.00731619,0.333031,1.04163
111,1904,3.30569,-0.00911565,0.333876,1.04012
121,1894,3.30654,-0.00680408,0.332753,1.03958
131,1884,3.3059,-0.00791829,0.333187,1.0387
141,1874,3.30505,-0.00910114,0.334049,1.03764
151,1864,3.30589,-0.00747151,0.333351,1.0365
161,1854,3.30561,-0.00798083,0.333792,1.03468
171,1844,3.30533,-0.00904859,0.333788,1.03532
181,1834,3.30495,-0.00966379,0.334198,1.03472
191,1824,3.30613,-0.00740099,0.333104,1.0342
201,1814,3.30487,-0.00860903,0.334521,1.0331
211,1804,3.30405,-0.00926613,0.334384,1.03247
221,1794,3.3037,-0.00940907,0.334788,1.03213
231,1784,3.30366,-0.00990914,0.334774,1.03177
241,1774,3.30507,-0.00765149,0.334491,1.03105
251,1764,3.30464,-0.00924726,0.334099,1.03005
261,1754,3.30417,-0.00983573,0.334533,1.02964
271,1744,3.30488,-0.00758874,0.333426,1.02896
281,1734,3.30426,-0.00829369,0.333845,1.02828
291,1724,3.30403,-0.00937957,0.333856,1.02763
301,1714,3.30408,-0.00985332,0.334401,1.0273
311,1704,3.3051,-0.00761301,0.333179,1.02658
321,1694,3.30466,-0.00878778,0.333608,1.02566
331,1684,3.30419,-0.00941878,0.333604,1.02525
341,1674,3.30328,-0.00998158,0.334046,1.02473
351,1664,3.3047,-0.00763357,0.333493,1.02422
361,1654,3.30439,-0.00824164,0.333457,1.02369
371,1644,3.30438,-0.00871989,0.333913,1.02333
381,1634,3.30388,-0.00984277,0.333814,1.0225
391,1624,3.30524,-0.00747135,0.332698,1.022
401,1614,3.30394,-0.00818819,0.33358,1.02121
411,1604,3.30359,-0.00882827,0.333567,1.02078
421,1594,3.30363,-0.00931907,0.333211,1.02043
431,1584,3.30313,-0.00997377,0.334002,1.01987
441,1574,3.3045,-0.00768088,0.332871,1.01926
451,1564,3.30429,-0.0082071,0.332887,1.01899
461,1554,3.30309,-0.00892628,0.333756,1.01816
471,1544,3.30295,-0.0100231,0.333766,1.01749
481,1534,3.30245,-0.0106794,0.334194,1.01689
491,1524,3.30411,-0.0083124,0.333069,1.01632
501,1514,3.30373,-0.0087979,0.333073,1.01605
511,1504,3.30307,-0.00945123,0.33351,1.01546
521,1494,3.30186,-0.0101316,0.334411,1.01473
531,1484,3.303808,-0.00825297,0.332838,1.01403
541,1474,3.3033,-0.0087119,0.333299,1.01363
551,1464,3.30284,-0.00952925,0.333755,1.01296
561,1454,3.30464,-0.00704958,0.332188,1.01267
571,1444,3.30354,-0.00834904,0.333072,1.01148
581,1434,3.30297,-0.00840788,0.333067,1.01144
591,1424,3.30258,-0.00958879,0.333514,1.01054
601,1414,3.30279,-0.0100993,0.333509,1.01021
611,1404,3.30374,-0.00775626,0.332832,1.00947
621,1394,3.30336,-0.00886154,0.332822,1.00876
631,1384,3.30204,-0.0096115,0.333733,1.00799
641,1374,3.30187,-0.0101048,0.333283,1.00784
651,1364,3.30297,-0.00774977,0.332584,1.00704
661,1354,3.30329,-0.00833792,0.332592,1.0067
671,1344,3.30249,-0.00966795,0.333045,1.00571
681,1334,3.30203,-0.0101363,0.333041,1.00541
691,1324,3.30258,-0.00846344,0.332817,1.00405
701,1314,3.30187,-0.00925531,0.33327,1.0034
711,1304,3.30217,-0.00964653,0.332808,1.00332
721,1294,3.3033,-0.00731126,0.332122,1.00252
731,1284,3.30277,-0.00842428,0.332589,1.00171
741,1274,3.30229,-0.00961885,0.332575,1.00092
751,1264,3.3008,-0.0103852,0.333507,1.00016
761,1254,3.30188,-0.00853229,0.332818,0.999064
771,1244,3.30182,-0.00912509,0.332824,0.998698
781,1234,3.30132,-0.0102225,0.333284,0.997883
791,1224,3.30237,-0.00844869,0.332599,0.99672
801,1214,3.30189,-0.00910219,0.332598,0.996311
811,1204,3.30085,-0.0103808,0.333057,0.995382
821,1194,3.30171,-0.00809698,0.332372,0.994515
831,1184,3.30103,-0.00926693,0.332825,0.993613
841,1174,3.30108,-0.00982914,0.332836,0.993309
851,1164,3.3021,-0.00800196,0.332172,0.9922
861,1154,3.30123,-0.00934199,0.332627,0.991209
871,1144,3.30069,-0.0104755,0.333103,0.99039
881,1134,3.30106,-0.00811926,0.332416,0.989537
891,1124,3.30042,-0.00944277,0.332874,0.988541
901,1114,3.3004,-0.010521,0.332878,0.98791
911,1104,3.30144,-0.00807221,0.332212,0.987184
921,1094,3.30048,-0.00940788,0.33269,0.984792
931,1084,3.30003,-0.0104551,0.332669,0.985554
941,1074,3.30046,-0.00880265,0.332496,0.984193
951,1064,3.29939,-0.00997531,0.332934,0.983247
961,1054,3.29923,-0.0107104,0.332932,0.982813
971,1044,3.30039,-0.00876636,0.332261,0.981712
981,1034,3.29952,-0.0101024,0.332726,0.980741
991,1024,3.30086,-0.00812225,0.332173,0.979891
1001,1014,3.29934,-0.00951779,0.332525,0.978646
1011,1004,3.29865,-0.0108196,0.333005,0.977722
1021,994,3.30046,-0.00826724,0.331878,0.977193
1031,984,3.29919,-0.00945283,0.33234,0.976294
1041,974,3.30038,-0.00818068,0.332245,0.974822
1051,964,3.29861,-0.00901879,0.332631,0.973979
1061,954,3.29789,-0.0108552,0.33311,0.972729
1071,944,3.29961,-0.00892546,0.331963,0.971773
1081,934,3.29868,-0.0101657,0.332447,0.970875
1091,924,3.29935,-0.0083039,0.331791,0.969752
1101,914,3.29782,-0.00973173,0.332755,0.968548
1111,904,3.29762,-0.0108884,0.332757,0.967868
1121,894,3.29833,-0.00962686,0.332575,0.966175
1131,884,3.29741,-0.0108661,0.332569,0.965433
1141,874,3.29761,-0.00920549,0.332405,0.963977
1151,864,3.2973,-0.0104636,0.332389,0.963471
1161,854,3.29821,-0.00856715,0.332223,0.961925
1171,844,3.29706,-0.0104236,0.332706,0.960654
1181,834,3.29743,-0.00855871,0.332025,0.959394
1191,824,3.29691,-0.00986285,0.332529,0.958519
1201,814,3.29788,-0.00855082,0.331858,0.956961
1211,804,3.29645,-0.00996834,0.332353,0.955952
1221,794,3.29692,-0.00866829,0.332191,0.954273
1231,784,3.29603,-0.0100742,0.332687,0.95327
1241,774,3.29693,-0.00856438,0.332035,0.951891
1251,764,3.29524,-0.0107041,0.333038,0.950301
1261,754,3.29701,-0.00862556,0.33149,0.949384
1271,744,3.29539,-0.0106489,0.332969,0.947739
1281,734,3.29536,-0.00945258,0.332746,0.946123
1291,724,3.29511,-0.0107418,0.332772,0.945439
1301,714,3.29541,-0.00963783,0.332611,0.943598
1311,704,3.29339,-0.0118424,0.333616,0.941938
1321,694,3.2946,-0.0103655,0.332981,0.94053
1331,684,3.29518,-0.00873126,0.332311,0.939118
1341,674,3.29341,-0.0104858,0.33334,0.937752
1351,664,3.29467,-0.00890124,0.332685,0.936344
1361,654,3.29242,-0.0110837,0.33371,0.93472
1371,644,3.29381,-0.00969842,0.333082,0.933238
1381,634,3.29463,-0.00883227,0.332431,0.931395
1391,624,3.29167,-0.0111851,0.333997,0.929545
1401,614,3.29266,-0.00981885,0.333356,0.927993
1411,604,3.29124,-0.011821,0.334454,0.926676
1421,594,3.2916,-0.0105258,0.333764,0.924697
1431,584,3.2921,-0.00922369,0.333121,0.923311
1441,574,3.29093,-0.0112979,0.333654,0.92197
1451,564,3.29132,-0.0105889,0.333551,0.919866
1461,554,3.29099,-0.00935575,0.333945,0.918053
1471,544,3.28939,-0.0121521,0.334527,0.916165
1481,534,3.28995,-0.0113406,0.333906,0.914273
1491,524,3.28985,-0.0100752,0.333812,0.912451
1501,514,3.29075,-0.00865516,0.333241,0.910888
1511,504,3.28844,-0.0115024,0.334261,0.908949
1521,494,3.28807,-0.0111116,0.334731,0.906454
1531,484,3.28919,-0.0103046,0.334107,0.904527
1541,474,3.28972,-0.00888136,0.33348,0.90294
1551,464,3.28736,-0.0118338,0.334581,0.90096
1561,454,3.28655,-0.0112232,0.334605,0.89854
1571,444,3.28741,-0.0104717,0.334464,0.896595
1581,434,3.28846,-0.013307,0.332724,0.894575
1591,424,3.28858,-0.00791355,0.331534,0.891546
1601,414,3.28837,-0.00751009,0.3315,0.889255
1611,404,3.28577,-0.0164833,0.33204,0.886999
1621,394,3.28606,-0.0121278,0.330854,0.88463
1631,384,3.28654,-0.0168555,0.329679,0.882698
1641,374,3.28754,-0.00929288,0.327384,0.879889
1651,364,3.28739,-0.0142206,0.326761,0.877656
1661,354,3.28708,-0.0123294,0.326126,0.87501
1671,344,3.28721,-0.00800853,0.32496,0.872873
1681,334,3.28782,-0.0116868,0.323792,0.869997
1691,324,3.28729,-0.0155325,0.322599,0.867246
1701,314,3.28746,-0.0117027,0.321427,0.864582
1711,304,3.2874,-0.00801679,0.320268,0.861854
1721,294,3.28777,-0.0117052,0.319099,0.859229
1731,284,3.28766,-0.0155197,0.31792,0.856501
1741,274,3.28761,-0.0117734,0.316754,0.853777
1751,264,3.28743,-0.00995531,0.316637,0.85114
1761,254,3.28765,-0.0136656,0.314982,0.848512
1771,244,3.28736,-0.00876281,0.31383,0.845144
1781,234,3.28681,-0.0145876,0.313214,0.842504
1791,224,3.28694,-0.0126499,0.312587,0.839874
1801,214,3.28733,-0.0106794,0.309777,0.836873
1811,204,3.28614,-0.0115598,0.31026,0.833772
1821,194,3.28545,-0.017525,0.309648,0.831128
1831,184,3.28645,-0.00962395,0.307396,0.828259
1841,174,3.28561,-0.0162117,0.306794,0.82532
1851,164,3.28455,-0.0144643,0.306716,0.82242
1861,154,3.28604,-0.0162941,0.304001,0.819802
1871,144,3.28499,-0.0136086,0.303388,0.81631
1881,134,3.28663,-0.0073302,0.302093,0.813695
1891,124,3.28705,-0.00807799,0.299871,0.810669
1901,114,3.28555,-0.0147783,0.299805,0.807311
1911,104,3.28517,-0.0129528,0.299189,0.804606
1921,94,3.28618,-0.0117318,0.295924,0.801114
1931,84,3.28496,-0.00814018,0.294775,0.798196
1941,74,3.28465,-0.0129311,0.293621,0.795084
1951,64,3.28304,-0.011298,0.294063,0.792196
1961,54,3.28407,-0.0159213,0.292867,0.789275
1971,44,3.28415,-0.0161904,0.290173,0.786147
1981,34,3.28265,-0.016342,0.290563,0.78359
1991,24,3.28282,-0.0171009,0.288365,0.78026
2001,14,3.28094,-0.0160242,0.28881,0.777044
2011,4,3.28121,-0.017928,0.286175,0.77441
2012,3,3.28009,-0.0188238,0.286617,0.773831