File: hust_correlation_analysis/matrices/HUST_9-3_cycle_feature_matrix.csv
cycle_number,rul,voltage,current,capacity,charge_capacity
1,1907,3.31158,0.0146121,0.291539,1.04403
10,1898,3.30169,-0.00994728,0.302674,1.02841
19,1889,3.3045,-0.0153804,0.30055,1.03317
28,1880,3.30451,-0.017029,0.299331,1.03537
37,1871,3.30695,-0.0157086,0.297694,1.03696
46,1862,3.30706,-0.016471,0.297282,1.0367
55,1853,3.30831,-0.0147279,0.296293,1.0356
64,1844,3.30823,-0.0153612,0.296006,1.03542
73,1835,3.30821,-0.0164647,0.296005,1.03478
82,1826,3.30942,-0.0145965,0.294739,1.03393
91,1817,3.30795,-0.0159551,0.295549,1.03275
100,1808,3.31044,-0.0140445,0.294307,1.03198
109,1799,3.30999,-0.0146401,0.294279,1.03159
118,1790,3.30807,-0.0160081,0.295093,1.03043
127,1781,3.31038,-0.0140683,0.293837,1.02961
136,1772,3.30923,-0.0147904,0.294227,1.02895
145,1763,3.30848,-0.0159541,0.294652,1.02817
154,1754,3.30811,-0.0166906,0.295056,1.02755
163,1745,3.3095,-0.0148092,0.294184,1.02643
172,1736,3.30838,-0.0155348,0.294609,1.02587
181,1727,3.30789,-0.016031,0.294599,1.02558
190,1718,3.30987,-0.0142089,0.29374,1.02447
199,1709,3.30854,-0.0149445,0.294135,1.02382
208,1700,3.3085,-0.0155462,0.294151,1.02353
217,1691,3.3088,-0.0160143,0.294146,1.02325
226,1682,3.30952,-0.0137123,0.293288,1.02241
235,1673,3.30902,-0.0144585,0.293671,1.02171
244,1664,3.30854,-0.0146333,0.294077,1.02137
253,1655,3.3076,-0.0158293,0.29449,1.02053
262,1646,3.30718,-0.0164647,0.294485,1.02014
271,1637,3.30931,-0.0144286,0.293208,1.01937
280,1628,3.30863,-0.0145096,0.293212,1.01932
289,1619,3.30837,-0.0157792,0.293627,1.01844
298,1610,3.30803,-0.0163748,0.293627,1.01812
307,1601,3.30711,-0.0170418,0.294034,1.01752
316,1592,3.30886,-0.0145201,0.292762,1.01701
325,1583,3.30846,-0.015161,0.292763,1.01647
334,1574,3.30766,-0.0159117,0.293187,1.01606
343,1565,3.30819,-0.0169499,0.292804,1.01548
352,1556,3.30903,-0.0138529,0.292052,1.01522
361,1547,3.30914,-0.0151584,0.292321,1.01434
370,1538,3.30845,-0.0157895,0.29274,1.0138
379,1529,3.30814,-0.0163738,0.292731,1.01347
388,1520,3.30826,-0.0169204,0.292739,1.0132
397,1511,3.30904,-0.0145954,0.291878,1.01232
406,1502,3.30825,-0.0152901,0.292277,1.0117
415,1493,3.3087,-0.0158552,0.292701,1.01145
424,1484,3.30775,-0.0164236,0.292298,1.01115
433,1475,3.30747,-0.0171365,0.292711,1.01055
442,1466,3.3092,-0.0146019,0.291437,1.01002
451,1457,3.30891,-0.015233,0.291426,1.00962
460,1448,3.3085,-0.0159387,0.291834,1.00904
469,1439,3.30739,-0.0166253,0.29225,1.00845
478,1430,3.30827,-0.0171865,0.291985,1.00834
487,1421,3.30883,-0.014747,0.291063,1.00755
496,1412,3.3082,-0.0154572,0.291543,1.00696
505,1403,3.30826,-0.0160565,0.291387,1.00663
514,1394,3.30739,-0.017319,0.291819,1.00577
523,1385,3.30734,-0.0173451,0.291896,1.00573
532,1376,3.3088,-0.0148135,0.290508,1.00513
541,1367,3.30858,-0.0160286,0.290947,1.00432
550,1358,3.30825,-0.0167854,0.29093,1.00386
559,1349,3.30687,-0.0174034,0.291783,1.00316
568,1340,3.30895,-0.0147997,0.290497,1.00262
577,1331,3.30855,-0.01546,0.290503,1.00227
586,1322,3.3081,-0.0166886,0.290925,1.00144
595,1313,3.30712,-0.0174784,0.291718,1.00079
604,1304,3.3088,-0.0149248,0.29006,1.00023
613,1295,3.3087,-0.0155093,0.290455,0.999901
622,1286,3.30804,-0.0161595,0.290044,0.999542
631,1277,3.30826,-0.0167406,0.29005,0.999237
640,1268,3.3086,-0.0149624,0.289602,0.997833
649,1259,3.3089,-0.0155967,0.289591,0.997468
658,1250,3.30764,-0.0163669,0.290031,0.996876
667,1241,3.30702,-0.0176405,0.290449,0.995988
676,1232,3.30884,-0.0150044,0.289307,0.995443
685,1223,3.30787,-0.0157663,0.289584,0.994846
694,1214,3.30735,-0.0170419,0.290006,0.993967
703,1205,3.30849,-0.0144196,0.288713,0.993382
712,1196,3.30856,-0.0150401,0.288698,0.993012
721,1187,3.30699,-0.0165157,0.289564,0.991865
730,1178,3.30729,-0.0170425,0.289131,0.99177
739,1169,3.30857,-0.015094,0.288262,0.990653
748,1160,3.30793,-0.0164747,0.28869,0.989721
757,1151,3.30875,-0.0105287,0.287839,0.989174
766,1142,3.30799,-0.0153391,0.288242,0.987923
775,1133,3.30816,-0.0159455,0.288235,0.9876
784,1124,3.30692,-0.0167227,0.288661,0.987218
793,1115,3.30803,-0.0112668,0.287825,0.986185
802,1106,3.30794,-0.0159702,0.287792,0.985199
811,1097,3.30723,-0.0167211,0.288214,0.984589
820,1088,3.30877,-0.0146997,0.286925,0.983717
829,1079,3.30711,-0.0160943,0.287784,0.982572
838,1070,3.30688,-0.0174153,0.288591,0.98167
847,1061,3.30806,-0.014792,0.286908,0.981061
856,1052,3.30759,-0.0161238,0.28734,0.980159
865,1043,3.30628,-0.0174861,0.287774,0.979227
874,1034,3.30831,-0.0148575,0.286467,0.978656
883,1025,3.30714,-0.0162916,0.286898,0.97769
892,1016,3.30618,-0.0178133,0.287333,0.97666
901,1007,3.30743,-0.0155601,0.286458,0.975667
910,998,3.30633,-0.0170242,0.286894,0.974711
919,989,3.3057,-0.0184714,0.287335,0.973749
928,980,3.30646,-0.0157627,0.286454,0.97296
937,971,3.3065,-0.0170413,0.286454,0.972308
946,962,3.30732,-0.0151479,0.285589,0.971118
955,953,3.30562,-0.0130414,0.286854,0.970238
964,944,3.30516,-0.0178409,0.286455,0.969264
973,935,3.30672,-0.0158808,0.285582,0.968091
982,926,3.30582,-0.0172596,0.286442,0.967198
991,917,3.30461,-0.0187242,0.286471,0.966227
1000,908,3.30738,-0.0104394,0.284726,0.964542
1009,899,3.30518,-0.0179741,0.285591,0.964411
1018,890,3.30586,-0.0160227,0.285148,0.962989
1027,881,3.30587,-0.0111467,0.284728,0.961536
1036,872,3.30587,-0.012607,0.285179,0.960571
1045,863,3.30474,-0.0175668,0.285167,0.959588
1054,854,3.30518,-0.0120652,0.284731,0.958392
1063,845,3.30544,-0.0168524,0.284278,0.957705
1072,836,3.30436,-0.0182778,0.28473,0.957025
1081,827,3.30525,-0.0170044,0.284304,0.955034
1090,818,3.30362,-0.0184504,0.285128,0.954076
1099,809,3.30519,-0.0163861,0.283866,0.952884
1108,800,3.30364,-0.0178147,0.284329,0.951973
1117,791,3.30517,-0.0164238,0.283443,0.950447
1126,782,3.30287,-0.017948,0.284357,0.949269
1135,773,3.30501,-0.0157661,0.283007,0.948324
1144,764,3.30288,-0.0180319,0.283932,0.946784
1153,755,3.30195,-0.0194357,0.284388,0.945881
1162,746,3.30324,-0.0180571,0.283505,0.944334
1171,737,3.30203,-0.0195219,0.28397,0.943422
1180,728,3.30235,-0.018291,0.283927,0.941601
1189,719,3.30306,-0.0124407,0.282648,0.940665
1198,710,3.30416,-0.0108965,0.282099,0.939184
1207,701,3.3026,-0.0169033,0.282696,0.937352
1216,692,3.3019,-0.0191054,0.283599,0.936084
1225,683,3.3013,-0.0133771,0.282736,0.934855
1234,674,3.30175,-0.0191881,0.282744,0.933554
1243,665,3.3004,-0.0134689,0.282788,0.932123
1252,656,3.30274,-0.0119748,0.281425,0.930798
1261,647,3.30119,-0.0179365,0.281915,0.929244
1270,638,3.30043,-0.0194707,0.282388,0.928297
1279,629,3.30127,-0.0114885,0.281539,0.925635
1288,620,3.30194,-0.0165771,0.281086,0.924981
1297,611,3.29948,-0.0190528,0.282042,0.923339
1306,602,3.30057,-0.0175364,0.281149,0.921805
1315,593,3.29932,-0.019821,0.28206,0.920494
1324,584,3.29969,-0.0184715,0.281217,0.918641
1333,575,3.29802,-0.020762,0.281693,0.917083
1342,566,3.29934,-0.0191818,0.28081,0.915819
1351,557,3.29918,-0.0178921,0.280406,0.914187
1360,548,3.29762,-0.0209747,0.28138,0.912048
1369,539,3.29859,-0.0194139,0.280486,0.910514
1378,530,3.29848,-0.0180273,0.280089,0.908673
1387,521,3.29671,-0.0211845,0.281083,0.906764
1396,512,3.29781,-0.0196514,0.280184,0.905184
1405,503,3.29677,-0.0150181,0.280229,0.903
1414,494,3.29603,-0.0212809,0.280287,0.901689
1423,485,3.29682,-0.0206523,0.279894,0.899462
1432,476,3.29715,-0.0111451,0.278306,0.897675
1441,467,3.29651,-0.0143709,0.279041,0.895721
1450,458,3.29682,-0.0129452,0.278654,0.893849
1459,449,3.29467,-0.0211116,0.279744,0.891277
1468,440,3.29492,-0.0154777,0.278757,0.889852
1477,431,3.29606,-0.0248414,0.277418,0.887609
1486,422,3.29363,-0.0263131,0.278439,0.8853
1495,413,3.29574,-0.0131557,0.275535,0.883024
1504,404,3.29537,-0.0265387,0.275084,0.881286
1513,395,3.29443,-0.0261729,0.27521,0.878721
1522,386,3.29493,-0.019099,0.273717,0.87637
1531,377,3.29519,-0.0210103,0.272217,0.874104
1540,368,3.29394,-0.0244355,0.27185,0.871952
1549,359,3.2948,-0.0133333,0.269948,0.869439
1558,350,3.29374,-0.0257601,0.269524,0.867037
1567,341,3.29628,-0.0124179,0.266583,0.864684
1576,332,3.29434,-0.0272136,0.267187,0.862056
1585,323,3.29562,-0.0221661,0.265252,0.859949
1594,314,3.29554,-0.0193261,0.264347,0.857709
1603,305,3.29513,-0.0172982,0.263422,0.855052
1612,296,3.29545,-0.0214514,0.262001,0.85242
1621,287,3.29503,-0.0215786,0.260989,0.849719
1630,278,3.29579,-0.023709,0.259667,0.847115
1639,269,3.29483,-0.0217895,0.259246,0.844205
1648,260,3.29493,-0.0261012,0.257814,0.841757
1657,251,3.29636,-0.0195256,0.2554,0.839041
1666,242,3.29544,-0.0175497,0.25497,0.836164
1675,233,3.29542,-0.0218387,0.253543,0.83349
1684,224,3.29544,-0.0261789,0.252127,0.830629
1693,215,3.29576,-0.0253269,0.251178,0.828846
1702,206,3.29529,-0.0220195,0.250248,0.825518
1711,197,3.2956,-0.0264631,0.248827,0.822826
1720,188,3.29578,-0.0221972,0.247383,0.820032
1729,179,3.29601,-0.0178135,0.245975,0.81742
1738,170,3.294495,-0.0276766,0.246014,0.81426
1747,161,3.29495,-0.0210865,0.24409,0.811437
1756,152,3.29661,-0.0166967,0.241607,0.808554
1765,143,3.2964,-0.0132533,0.240782,0.805202
1774,134,3.2948,-0.0199044,0.240776,0.801603
1783,125,3.29396,-0.0266569,0.239833,0.800265
1792,116,3.29359,-0.0232618,0.238887,0.796933
1801,107,3.29359,-0.0262297,0.236967,0.793845
1810,98,3.296,-0.0195705,0.234583,0.790959
1819,89,3.2957,-0.0265258,0.233635,0.788562
1828,80,3.29442,-0.0161325,0.232537,0.784938
1837,71,3.29392,-0.0238437,0.231597,0.781999
1846,62,3.29432,-0.0264666,0.230762,0.779053
1855,53,3.29592,-0.0112144,0.227739,0.775681
1864,44,3.29392,-0.027512,0.227886,0.773292
1873,35,3.29342,-0.0251271,0.226908,0.770694
1882,26,3.29233,-0.0308849,0.225944,0.767364
1891,17,3.29222,-0.0286671,0.224972,0.764732
1900,8,3.2945,-0.018107,0.222101,0.761044
1905,3,3.29369,-0.0239525,0.221153,0.759147