File: hust_correlation_analysis/matrices/HUST_3-6_cycle_feature_matrix.csv
cycle_number,rul,voltage,current,capacity,charge_capacity
1,2493,3.31611,0.0215783,0.292031,1.02404
13,2481,3.30634,-0.0170978,0.30423,1.00935
25,2469,3.31137,-0.0147795,0.300166,1.0153
37,2457,3.31354,-0.0135026,0.297474,1.01725
49,2445,3.31516,-0.0133887,0.296145,1.01796
61,2433,3.31521,-0.0147269,0.295711,1.01754
73,2421,3.3147,-0.0153842,0.296179,1.01718
85,2409,3.31588,-0.0140738,0.293841,1.016
97,2397,3.31509,-0.0153507,0.294779,1.01509
109,2385,3.31646,-0.014111,0.293878,1.01367
121,2373,3.31583,-0.0147329,0.293865,1.01331
133,2361,3.31666,-0.0134682,0.293996,1.01164
145,2349,3.31574,-0.0142728,0.293817,1.01098
157,2337,3.31463,-0.0155364,0.294704,1.00994
169,2325,3.3155,-0.0136356,0.293781,1.00875
181,2313,3.31522,-0.0151887,0.294232,1.0078
193,2301,3.31394,-0.0162301,0.29511,1.00681
205,2289,3.31495,-0.0137327,0.294189,1.00592
217,2277,3.31449,-0.0150947,0.294625,1.00498
229,2265,3.31346,-0.0157285,0.295068,1.00469
241,2253,3.315,-0.0137147,0.294147,1.00331
253,2241,3.31403,-0.01561,0.294998,1.00304
265,2229,3.31317,-0.0165868,0.295436,1.00229
277,2217,3.31327,-0.0175736,0.295595,1.0018
289,2205,3.31424,-0.0139603,0.294079,1.00048
301,2193,3.31332,-0.0164086,0.294964,1.00005
313,2181,3.31319,-0.0159356,0.295146,0.99931
325,2169,3.31234,-0.0183432,0.296037,0.998912
337,2157,3.31353,-0.0141105,0.294051,0.997819
349,2145,3.31291,-0.0153942,0.294502,0.996968
361,2133,3.3124,-0.0176497,0.294951,0.997134
373,2121,3.31357,-0.0140862,0.294037,0.995265
385,2109,3.31307,-0.0148417,0.294028,0.994866
397,2097,3.31234,-0.0154678,0.2945,0.994392
409,2085,3.31214,-0.016024,0.29449,0.994106
421,2073,3.31308,-0.01406,0.294039,0.992738
433,2061,3.31213,-0.0148153,0.294482,0.992099
445,2049,3.31139,-0.0155224,0.294961,0.9916
457,2037,3.31082,-0.0168411,0.295418,0.990736
469,2025,3.31235,-0.0141237,0.294035,0.990131
481,2013,3.31196,-0.014898,0.294478,0.989484
493,2001,3.31159,-0.015592,0.294465,0.98909
505,1989,3.3107,-0.0162821,0.29492,0.988539
517,1977,3.31043,-0.0170481,0.294916,0.988152
529,1965,3.31136,-0.0150482,0.294469,0.986798
541,1953,3.31125,-0.015706,0.295073,0.986428
553,1941,3.31074,-0.0162489,0.294476,0.986253
565,1929,3.3099,-0.0170989,0.294915,0.985546
577,1917,3.31199,-0.0143298,0.29354,0.984995
589,1905,3.31085,-0.0157692,0.294945,0.983815
601,1893,3.31033,-0.0165052,0.294465,0.983484
613,1881,3.31179,-0.0135887,0.293553,0.982794
625,1869,3.31104,-0.0150344,0.294018,0.981873
637,1857,3.30997,-0.0157757,0.294497,0.981321
649,1845,3.30985,-0.0164465,0.294496,0.981021
661,1833,3.30936,-0.0171421,0.294495,0.980678
673,1821,3.31071,-0.0144419,0.29356,0.979778
685,1809,3.31049,-0.0152042,0.293551,0.979405
697,1797,3.30975,-0.0165571,0.294504,0.978527
709,1785,3.30911,-0.0173989,0.29448,0.977871
721,1773,3.31067,-0.0145142,0.293087,0.977345
733,1761,3.30952,-0.0160474,0.294028,0.976153
745,1749,3.30915,-0.0166409,0.294038,0.975923
757,1737,3.30837,-0.0174148,0.295004,0.975325
769,1725,3.3102,-0.0147927,0.293177,0.974541
781,1713,3.30953,-0.0160441,0.293567,0.973774
793,1701,3.30905,-0.0168313,0.293559,0.97338
805,1689,3.31046,-0.0142159,0.29264,0.97248
817,1677,3.30977,-0.0154742,0.293106,0.971639
829,1665,3.30954,-0.0162058,0.293096,0.971274
841,1653,3.30923,-0.0169583,0.293086,0.970892
853,1641,3.31042,-0.0146568,0.292162,0.969841
865,1629,3.3096,-0.0155244,0.29326,0.969188
877,1617,3.30912,-0.0163003,0.29263,0.968814
889,1605,3.30843,-0.017679,0.293125,0.968011
901,1593,3.30974,-0.0148685,0.292273,0.967112
913,1581,3.3095,-0.0161762,0.292281,0.966547
925,1569,3.30857,-0.017052,0.292663,0.965884
937,1557,3.3098,-0.0148753,0.291721,0.964707
949,1545,3.30924,-0.0155486,0.291723,0.964401
961,1533,3.3085,-0.0164671,0.292178,0.963673
973,1521,3.30769,-0.018026,0.292667,0.962731
985,1509,3.30947,-0.0150621,0.291241,0.962142
997,1497,3.30864,-0.0165909,0.291768,0.961353
1009,1485,3.30763,-0.0179761,0.292224,0.960402
1021,1473,3.30947,-0.0151541,0.290782,0.959671
1033,1461,3.30859,-0.0164585,0.291283,0.958915
1045,1449,3.30769,-0.017313,0.291755,0.958246
1057,1437,3.30887,-0.015198,0.290811,0.957006
1069,1425,3.30806,-0.0166646,0.291312,0.956166
1081,1413,3.3072,-0.0180358,0.291809,0.955355
1093,1401,3.30896,-0.0150919,0.290376,0.954725
1105,1389,3.30809,-0.0167146,0.290858,0.953712
1117,1377,3.30705,-0.0181063,0.291368,0.95294
1129,1365,3.30836,-0.0160403,0.291031,0.951579
1141,1353,3.30775,-0.0169161,0.290887,0.951185
1153,1341,3.30679,-0.0184257,0.290963,0.950215
1165,1329,3.30806,-0.016263,0.289929,0.948989
1177,1317,3.30652,-0.0177702,0.290931,0.947884
1189,1305,3.30849,-0.0154322,0.289476,0.946924
1201,1293,3.30756,-0.0169277,0.289985,0.946074
1213,1281,3.30636,-0.0178589,0.290473,0.945385
1225,1269,3.30774,-0.0163201,0.289527,0.943867
1237,1257,3.30634,-0.0171731,0.290025,0.943251
1249,1245,3.30744,-0.014954,0.289084,0.942056
1261,1233,3.30664,-0.0172131,0.289591,0.940844
1273,1221,3.30573,-0.0187552,0.290176,0.9399
1285,1209,3.30698,-0.0165651,0.289147,0.938924
1297,1197,3.30571,-0.0180178,0.289649,0.937814
1309,1185,3.30673,-0.0158092,0.288698,0.936563
1321,1173,3.30566,-0.0173776,0.289219,0.935678
1333,1161,3.30476,-0.0189876,0.289717,0.934705
1345,1149,3.30589,-0.0165866,0.288755,0.933508
1357,1137,3.30466,-0.0183589,0.289259,0.932464
1369,1125,3.30604,-0.0161105,0.288294,0.931183
1381,1113,3.30504,-0.0183802,0.28883,0.93029
1393,1101,3.30601,-0.0161671,0.287852,0.928685
1405,1089,3.30523,-0.0178264,0.288351,0.927683
1417,1077,3.30377,-0.0193857,0.288876,0.926799
1429,1065,3.30486,-0.017204,0.287902,0.925454
1441,1053,3.30399,-0.0195154,0.288429,0.924241
1453,1041,3.30489,-0.0171974,0.287471,0.923008
1465,1029,3.30372,-0.018837,0.288071,0.922058
1477,1017,3.30495,-0.017087,0.287049,0.920633
1489,1005,3.30311,-0.0189266,0.288093,0.919337
1501,993,3.30451,-0.0172859,0.287141,0.917811
1513,981,3.30302,-0.0188979,0.287669,0.916899
1525,969,3.30378,-0.0174679,0.287235,0.914994
1537,957,3.30246,-0.0197128,0.28844,0.913906
1549,945,3.30339,-0.0174506,0.286818,0.912575
1561,933,3.30228,-0.019207,0.287351,0.911586
1573,921,3.30328,-0.0176028,0.286367,0.909753
1585,909,3.30165,-0.0194307,0.287427,0.908624
1597,897,3.30269,-0.0177993,0.28647,0.907054
1609,885,3.30125,-0.0195272,0.287493,0.906074
1621,873,3.30258,-0.0179314,0.286027,0.904446
1633,861,3.3004,-0.0204232,0.287137,0.903013
1645,849,3.30104,-0.0189984,0.286703,0.901011
1657,837,3.30222,-0.0172804,0.28574,0.899468
1669,825,3.30074,-0.018976,0.286283,0.8985
1681,813,3.30185,-0.0173458,0.285298,0.896839
1693,801,3.29965,-0.0202098,0.286391,0.895132
1705,789,3.30074,-0.0184709,0.285425,0.893564
1717,777,3.29873,-0.0212162,0.286543,0.891971
1729,765,3.29976,-0.0194634,0.285579,0.890406
1741,753,3.30005,-0.0178289,0.285164,0.888506
1753,741,3.29849,-0.0203935,0.285722,0.887213
1765,729,3.29881,-0.0187562,0.285812,0.885333
1777,717,3.29987,-0.0170355,0.284342,0.883714
1789,705,3.2984,-0.0196472,0.284912,0.882435
1801,693,3.29873,-0.0189356,0.284486,0.880067
1813,681,3.2962,-0.0218907,0.285623,0.878355
1825,669,3.29719,-0.0202757,0.284637,0.876642
1837,657,3.29771,-0.0194309,0.284306,0.87439
1849,645,3.298,-0.018571,0.283834,0.872146
1861,633,3.29563,-0.0215154,0.284995,0.870432
1873,621,3.29677,-0.0181315,0.283437,0.868552
1885,609,3.2968,-0.0265506,0.283035,0.866214
1897,597,3.29731,-0.0211532,0.281961,0.863879
1909,585,3.29532,-0.02011,0.28148,0.862014
1921,573,3.29564,-0.0275525,0.280477,0.860295
1933,561,3.29633,-0.022198,0.278891,0.857896
1945,549,3.29702,-0.016661,0.277326,0.855608
1957,537,3.29716,-0.0228039,0.276325,0.853272
1969,525,3.2954,-0.0241205,0.276319,0.851595
1981,513,3.29605,-0.0185872,0.274732,0.849247
1993,501,3.29599,-0.0247667,0.273727,0.845419
2005,489,3.29629,-0.0216902,0.272724,0.844546
2017,477,3.29704,-0.0169036,0.271144,0.84193
2029,465,3.29419,-0.0277688,0.271714,0.839931
2041,453,3.29484,-0.0222379,0.270131,0.837596
2053,441,3.29527,-0.0198573,0.269131,0.834991
2065,429,3.29545,-0.0236555,0.267537,0.832664
2077,417,3.29558,-0.0205509,0.266516,0.830281
2089,405,3.29553,-0.0278193,0.265511,0.827663
2101,393,3.29591,-0.0220426,0.263919,0.825352
2113,381,3.29727,-0.0162923,0.261751,0.82329
2125,369,3.2966,-0.0234979,0.261322,0.820491
2137,357,3.29433,-0.0234208,0.2613,0.81811
2149,345,3.29435,-0.0203163,0.26027,0.815693
2161,333,3.29436,-0.0268021,0.259241,0.81336
2173,321,3.29481,-0.0217196,0.257642,0.810787
2185,309,3.29478,-0.0291693,0.256649,0.808116
2197,297,3.29476,-0.0259846,0.255564,0.805734
2209,285,3.29535,-0.0210597,0.25397,0.803113
2221,273,3.29562,-0.0259545,0.252348,0.800412
2233,261,3.29558,-0.0226517,0.251314,0.79812
2245,249,3.29538,-0.0178722,0.250276,0.79511
2257,237,3.29509,-0.0253809,0.249209,0.792423
2269,225,3.29603,-0.0178829,0.247025,0.789663
2281,213,3.29541,-0.0279685,0.246558,0.787207
2293,201,3.29537,-0.0246128,0.245493,0.78483
2305,189,3.29304,-0.0245366,0.245476,0.782457
2317,177,3.29191,-0.0323834,0.245002,0.779574
2329,165,3.29307,-0.0287532,0.243506,0.777589
2341,153,3.29217,-0.0290237,0.24344,0.774635
2353,141,3.29249,-0.0317674,0.241216,0.771792
2365,129,3.29273,-0.0266064,0.239009,0.769157
2377,117,3.29326,-0.0204916,0.238381,0.766748
2389,105,3.29292,-0.0284276,0.236865,0.764069
2401,93,3.29342,-0.0231607,0.235235,0.761446
2413,81,3.29231,-0.0312158,0.234701,0.758452
2425,69,3.29305,-0.023299,0.232496,0.755929
2437,57,3.29337,-0.0207351,0.231415,0.753087
2449,45,3.29242,-0.0305566,0.230882,0.750802
2461,33,3.29283,-0.0252865,0.229222,0.748079
2473,21,3.29265,-0.0306394,0.227562,0.745363
2485,9,3.29198,-0.0282153,0.227015,0.742387
2491,3,3.29052,-0.0277095,0.227014,0.741375