File: hust_correlation_analysis/matrices/HUST_1-2_cycle_feature_matrix.csv
cycle_number,rul,voltage,current,capacity,charge_capacity
1,2680,3.31552,-0.00614179,0.329367,1.05461
14,2667,3.30739,-0.00797103,0.333757,1.04673
27,2654,3.30764,-0.00746964,0.333125,1.04482
40,2641,3.30836,-0.00657741,0.332324,1.04314
53,2628,3.30776,-0.00877428,0.332743,1.04155
66,2615,3.30858,-0.00717041,0.331626,1.04055
79,2602,3.30815,-0.00883932,0.332792,1.03931
92,2589,3.30914,-0.00715956,0.330953,1.03845
105,2576,3.30852,-0.00833271,0.331443,1.0375
118,2563,3.30835,-0.0093364,0.331367,1.03685
131,2550,3.30932,-0.00772538,0.330668,1.03421
144,2537,3.30915,-0.00876365,0.330542,1.03506
157,2524,3.30811,-0.00931627,0.33112,1.03459
170,2511,3.30943,-0.00775365,0.330427,1.03341
183,2498,3.30889,-0.00794278,0.330412,1.03324
196,2485,3.30872,-0.008855,0.330417,1.03266
209,2472,3.30821,-0.00947181,0.330415,1.03225
222,2459,3.30962,-0.00729108,0.329685,1.03135
235,2446,3.30912,-0.00791808,0.329689,1.03096
248,2433,3.30882,-0.00896865,0.329705,1.03032
261,2420,3.30836,-0.00961944,0.330118,1.02972
274,2407,3.31013,-0.00719884,0.328592,1.02945
287,2394,3.30983,-0.0078686,0.328594,1.02901
300,2381,3.30926,-0.0089841,0.329017,1.02813
313,2368,3.30878,-0.00944009,0.329029,1.02789
326,2355,3.31027,-0.0072769,0.327911,1.02722
339,2342,3.31024,-0.00833016,0.327927,1.0266
352,2329,3.30996,-0.00896826,0.328058,1.02595
365,2316,3.30964,-0.00940946,0.327925,1.02589
378,2303,3.31102,-0.0077446,0.327266,1.02486
391,2290,3.31081,-0.00830332,0.32727,1.02451
404,2277,3.31042,-0.00876484,0.327267,1.02421
417,2264,3.30977,-0.00952534,0.327657,1.02345
430,2251,3.31096,-0.00727402,0.326544,1.02285
443,2238,3.31086,-0.00787158,0.326544,1.02248
456,2225,3.31054,-0.00842026,0.326541,1.0221
469,2212,3.3099,-0.00956803,0.326997,1.02131
482,2199,3.31185,-0.00720888,0.325431,1.02083
495,2186,3.31117,-0.00774417,0.325864,1.02039
508,2173,3.31087,-0.00851347,0.325873,1.0199
521,2160,3.31025,-0.00952627,0.326308,1.01913
534,2147,3.31216,-0.00715652,0.324788,1.0188
547,2134,3.31167,-0.0083593,0.325207,1.01787
560,2121,3.31133,-0.0088848,0.3252,1.0175
573,2108,3.31094,-0.00956759,0.325197,1.01705
586,2095,3.3124,-0.00724187,0.324091,1.0165
599,2082,3.31235,-0.0078473,0.324097,1.01612
612,2069,3.31202,-0.00831578,0.324839,1.01558
625,2056,3.31171,-0.00950335,0.324102,1.01507
638,2043,3.31319,-0.00713607,0.322988,1.01453
651,2030,3.3125,-0.00795702,0.322761,1.01383
664,2017,3.31231,-0.00845227,0.323407,1.01351
677,2004,3.31204,-0.00952255,0.323411,1.01283
690,1991,3.31345,-0.00726254,0.322303,1.01222
703,1978,3.31299,-0.00786216,0.322272,1.01174
716,1965,3.31308,-0.00892236,0.322313,1.01118
729,1952,3.31252,-0.00901666,0.322273,1.01103
742,1939,3.31421,-0.00719913,0.321201,1.01021
755,1926,3.31366,-0.00836243,0.32161,1.00927
768,1913,3.31311,-0.00897062,0.321618,1.00889
781,1900,3.3128,-0.0094907,0.321608,1.00853
794,1887,3.31414,-0.0078564,0.320922,1.00737
807,1874,3.31375,-0.00838534,0.320926,1.00702
820,1861,3.31338,-0.00898176,0.320925,1.00663
833,1848,3.31438,-0.0072513,0.320241,1.00554
846,1835,3.31413,-0.00785051,0.320224,1.00509
859,1822,3.31393,-0.0089774,0.320241,1.0044
872,1809,3.31314,-0.00969163,0.321397,1.00374
885,1796,3.31451,-0.0078357,0.319553,1.00289
898,1783,3.31382,-0.00903655,0.319995,1.00202
911,1770,3.31294,-0.00972536,0.320393,1.00134
924,1757,3.31445,-0.00786088,0.319317,1.00056
937,1744,3.3138,-0.00857181,0.31972,0.999879
950,1731,3.31362,-0.00915063,0.319278,0.999588
963,1718,3.31426,-0.00752646,0.319038,0.998284
976,1705,3.31413,-0.00855545,0.319026,0.997855
989,1692,3.31328,-0.00982383,0.319456,0.996643
1002,1679,3.31438,-0.00797386,0.31877,0.995585
1015,1666,3.31397,-0.00913355,0.318771,0.99483
1028,1653,3.31322,-0.00978577,0.318766,0.994372
1041,1640,3.31444,-0.00799155,0.318098,0.993336
1054,1627,3.31364,-0.00919635,0.318527,0.992401
1067,1614,3.31445,-0.00744747,0.31728,0.991284
1080,1601,3.31405,-0.00861615,0.318276,0.990389
1093,1588,3.3134,-0.00983433,0.318273,0.98958
1106,1575,3.31454,-0.00755569,0.317156,0.988906
1119,1562,3.31362,-0.00879418,0.31802,0.987814
1132,1549,3.31498,-0.00747191,0.316911,0.986564
1145,1536,3.31393,-0.00825374,0.317307,0.985787
1158,1523,3.31308,-0.00950445,0.317768,0.985177
1171,1510,3.3144,-0.00773344,0.316626,0.983854
1184,1497,3.31359,-0.0093302,0.317081,0.98282
1197,1484,3.31481,-0.00608576,0.315973,0.981428
1210,1471,3.31401,-0.00734523,0.316402,0.980474
1223,1458,3.31321,-0.0114659,0.315987,0.979317
1236,1445,3.31456,-0.0111301,0.315299,0.978523
1249,1432,3.31438,-0.00919843,0.314453,0.977538
1262,1419,3.31526,-0.00748964,0.31377,0.976337
1275,1406,3.31477,-0.00722125,0.313752,0.975179
1288,1393,3.31356,-0.0139698,0.314181,0.974572
1301,1380,3.31498,-0.0121123,0.313071,0.973619
1314,1367,3.31445,-0.0102648,0.312771,0.972385
1327,1354,3.3137,-0.00994983,0.31264,0.971295
1340,1341,3.31465,-0.00972023,0.312396,0.970322
1353,1328,3.31414,-0.00788629,0.311959,0.969039
1366,1315,3.31534,-0.00558636,0.310861,0.968392
1379,1302,3.31429,-0.0128204,0.311285,0.967515
1392,1289,3.31408,-0.0109335,0.31086,0.966288
1405,1276,3.31538,-0.00907469,0.309754,0.965345
1418,1263,3.31448,-0.0103327,0.310191,0.964415
1431,1250,3.31384,-0.00996194,0.310192,0.963365
1444,1237,3.31465,-0.0128741,0.309071,0.961935
1457,1224,3.31368,-0.0120548,0.309063,0.961371
1470,1211,3.31551,-0.00910951,0.307538,0.959745
1483,1198,3.31419,-0.0105043,0.308392,0.958584
1496,1185,3.31387,-0.010082,0.307966,0.957705
1509,1172,3.31437,-0.0134314,0.30731,0.955966
1522,1159,3.31366,-0.0131593,0.307285,0.954767
1535,1146,3.315,-0.00974537,0.305768,0.953688
1548,1133,3.31398,-0.00800921,0.305761,0.952178
1561,1120,3.31497,-0.00615159,0.30508,0.951057
1574,1107,3.31447,-0.00742275,0.305142,0.950263
1587,1094,3.31533,-0.0107151,0.303981,0.948646
1600,1081,3.31407,-0.0105622,0.304533,0.947305
1613,1068,3.31497,-0.00767738,0.303307,0.945695
1626,1055,3.31397,-0.013553,0.303307,0.944591
1639,1042,3.31501,-0.0107294,0.302212,0.942961
1652,1029,3.31387,-0.0110901,0.302654,0.94135
1665,1016,3.31473,-0.00770783,0.30154,0.939995
1678,1003,3.31342,-0.00803177,0.301962,0.938358
1691,990,3.31451,-0.0123253,0.300864,0.937425
1704,977,3.31331,-0.0110324,0.300873,0.935664
1717,964,3.31417,-0.00996871,0.300192,0.934039
1730,951,3.31305,-0.00858831,0.30019,0.932302
1743,938,3.31319,-0.013711,0.299949,0.930602
1756,925,3.31425,-0.00924639,0.298433,0.928813
1769,912,3.31284,-0.00966675,0.298866,0.927141
1782,899,3.31375,-0.0083013,0.298187,0.925939
1795,886,3.31187,-0.0149797,0.298605,0.923998
1808,873,3.3123,-0.0122926,0.297925,0.922079
1821,860,3.31338,-0.0078057,0.29641,0.920253
1834,847,3.31165,-0.00975453,0.297245,0.918753
1847,834,3.31185,-0.0138777,0.296586,0.91657
1860,821,3.31228,-0.0116604,0.295914,0.914356
1873,808,3.3107,-0.0120294,0.296334,0.912683
1886,795,3.31134,-0.00823718,0.295245,0.910277
1899,782,3.31171,-0.0133776,0.294478,0.908796
1912,769,3.31214,-0.00954579,0.293478,0.906366
1925,756,3.31062,-0.0104803,0.293912,0.904378
1938,743,3.31086,-0.00768859,0.293227,0.902451
1951,730,3.31125,-0.0108134,0.292151,0.899777
1964,717,3.31123,-0.0096853,0.291899,0.898032
1977,704,3.31152,-0.00958454,0.29168,0.895749
1990,691,3.30978,-0.0105972,0.292103,0.893682
2003,678,3.30981,-0.0148078,0.291444,0.891525
2016,665,3.31002,-0.0125638,0.290781,0.889307
2029,652,3.31048,-0.0086446,0.289697,0.886928
2042,639,3.31073,-0.00645012,0.28904,0.884616
2055,626,3.31011,-0.013069,0.289239,0.882132
2068,613,3.30864,-0.00848929,0.290115,0.880653
2081,600,3.30866,-0.0128127,0.289582,0.878462
2094,587,3.30882,-0.0111492,0.288803,0.875888
2107,574,3.30878,-0.0128744,0.287272,0.872888
2120,561,3.30899,-0.0106195,0.286737,0.870559
2133,548,3.30943,-0.007089,0.285516,0.867956
2146,535,3.30916,-0.00754297,0.285708,0.86641
2159,522,3.30709,-0.0143627,0.285721,0.863811
2172,509,3.30721,-0.0119738,0.285045,0.861836
2185,496,3.30741,-0.00968836,0.284387,0.859311
2198,483,3.30722,-0.00973332,0.284618,0.856777
2211,470,3.30722,-0.00738433,0.283968,0.854551
2224,457,3.3071,-0.0125115,0.283313,0.851973
2237,444,3.30731,-0.0102688,0.282706,0.849712
2250,431,3.30749,-0.00610614,0.282319,0.847322
2263,418,3.30563,-0.0145989,0.281551,0.845082
2276,405,3.30594,-0.0105026,0.280451,0.842647
2289,392,3.30591,-0.0157187,0.27982,0.840119
2302,379,3.30599,-0.0133834,0.279255,0.837776
2315,366,3.30599,-0.00995041,0.278504,0.834878
2328,353,3.30607,-0.00757012,0.277838,0.832602
2341,340,3.30617,-0.0110436,0.276784,0.829929
2354,327,3.30612,-0.0104,0.276544,0.827805
2367,314,3.30646,-0.00618366,0.275463,0.825417
2380,301,3.30433,-0.00906449,0.276324,0.823506
2393,288,3.30431,-0.0143537,0.275695,0.820995
2406,275,3.30446,-0.0119338,0.275047,0.818759
2419,262,3.30458,-0.00951183,0.274402,0.817009
2432,249,3.30499,-0.0140616,0.273433,0.814518
2445,236,3.30521,-0.0116287,0.272669,0.81226
2458,223,3.3035,-0.0115578,0.272666,0.809705
2471,210,3.30324,-0.00918759,0.272468,0.807272
2484,197,3.3033,-0.00851399,0.272179,0.805249
2497,184,3.30299,-0.0151333,0.272099,0.803248
2510,171,3.303925,-0.0107169,0.27057,0.801036
2523,158,3.30402,-0.00817564,0.269927,0.798806
2536,145,3.30182,-0.016643,0.27038,0.796789
2549,132,3.30209,-0.0141095,0.269714,0.794514
2562,119,3.30229,-0.011622,0.269075,0.79226
2575,106,3.30311,-0.00896341,0.267986,0.790233
2588,93,3.30123,-0.0100707,0.268432,0.788204
2601,80,3.3013,-0.0130524,0.267362,0.785843
2614,67,3.30133,-0.0123778,0.267168,0.783791
2627,54,3.30209,-0.0152379,0.265672,0.7817
2640,41,3.30159,-0.0146983,0.265909,0.779386
2653,28,3.30023,-0.0139249,0.265476,0.777369
2666,15,3.30054,-0.0106363,0.264822,0.775442
2678,3,3.30137,-0.00791866,0.263755,0.773458