File: hust_correlation_analysis/matrices/HUST_4-3_cycle_feature_matrix.csv
cycle_number,rul,voltage,current,capacity,charge_capacity
1,1144,3.3116,-0.00669701,0.333026,1.02991
7,1138,3.29979,-0.00855607,0.338025,1.0243
13,1132,3.30184,-0.00741155,0.336458,1.02316
19,1126,3.30139,-0.00860522,0.336458,1.02243
25,1120,3.30244,-0.00684584,0.335347,1.02152
31,1114,3.30274,-0.00754694,0.334888,1.02123
37,1108,3.30279,-0.00870504,0.334875,1.02046
43,1102,3.30207,-0.00935357,0.334869,1.02004
49,1096,3.30285,-0.00703981,0.334187,1.0193
55,1090,3.30313,-0.00821354,0.333758,1.01873
61,1084,3.30325,-0.00877903,0.333743,1.01832
67,1078,3.30309,-0.00942124,0.33374,1.01793
73,1072,3.30479,-0.00753909,0.332632,1.0171
79,1066,3.30388,-0.0076403,0.333067,1.01687
85,1060,3.30324,-0.00826883,0.333057,1.01644
91,1054,3.30338,-0.00882611,0.333062,1.01609
97,1048,3.305,-0.00702199,0.331963,1.01525
103,1042,3.30507,-0.00756504,0.331954,1.01487
109,1036,3.30417,-0.00769697,0.332382,1.0146
115,1030,3.30453,-0.00824976,0.331952,1.01444
121,1024,3.30469,-0.00872117,0.331877,1.01442
127,1018,3.30372,-0.00937462,0.33239,1.01356
133,1012,3.30471,-0.0071077,0.331792,1.01278
139,1006,3.30427,-0.00766484,0.331724,1.01246
145,1000,3.30483,-0.00817111,0.331298,1.01234
151,994,3.30473,-0.00874771,0.33173,1.0118
157,988,3.30458,-0.00938299,0.331732,1.0114
163,982,3.30557,-0.00647164,0.331207,1.01109
169,976,3.30511,-0.00702736,0.331067,1.01072
175,970,3.30519,-0.00757613,0.331065,1.01036
181,964,3.30505,-0.00824004,0.330944,1.00993
187,958,3.30466,-0.00872572,0.331064,1.00964
193,952,3.30422,-0.00883651,0.331512,1.0094
199,946,3.30405,-0.00949337,0.331507,1.00898
205,940,3.30628,-0.00651888,0.330588,1.009
211,934,3.30643,-0.00706476,0.329968,1.00866
217,928,3.30547,-0.00769393,0.330399,1.00808
223,922,3.30478,-0.00774369,0.33037,1.00795
229,916,3.30439,-0.00816728,0.330368,1.00768
235,910,3.30466,-0.00836134,0.330346,1.00751
241,904,3.30513,-0.00893497,0.329919,1.00732
247,898,3.30453,-0.00959359,0.330348,1.00674
253,892,3.30554,-0.00725009,0.329684,1.00602
259,886,3.30519,-0.00782944,0.329686,1.00566
265,880,3.3054,-0.00776064,0.329243,1.00722
271,874,3.30541,-0.00835027,0.32924,1.00573
277,868,3.3054,-0.0088556,0.329253,1.00518
283,862,3.3047,-0.00948422,0.329762,1.0046
289,856,3.30611,-0.00718533,0.328564,1.00399
295,850,3.30609,-0.00724541,0.328573,1.00394
301,844,3.30571,-0.00835412,0.329013,1.00309
307,838,3.30532,-0.00893972,0.329018,1.00274
313,832,3.30487,-0.00889196,0.329015,1.00274
319,826,3.30446,-0.00959678,0.328953,1.0023
325,820,3.30672,-0.00719293,0.32792,1.00182
331,814,3.30652,-0.00768383,0.327915,1.00149
337,808,3.30615,-0.00834892,0.327911,1.00106
343,802,3.30548,-0.00891242,0.328349,0.999108
349,796,3.30459,-0.00953437,0.3288,1.00003
355,790,3.30664,-0.00717771,0.32726,0.999627
361,784,3.30684,-0.00776449,0.327243,0.999214
367,778,3.30656,-0.00833304,0.327689,0.998716
373,772,3.30621,-0.00887694,0.327697,0.998391
379,766,3.30524,-0.00955113,0.328139,0.997797
385,760,3.30649,-0.00720297,0.327011,0.997171
391,754,3.30674,-0.00777735,0.327035,0.996873
397,748,3.30673,-0.00831676,0.327037,0.996534
403,742,3.30651,-0.00894399,0.327034,0.996148
409,736,3.30627,-0.00943382,0.327029,0.995812
415,730,3.30703,-0.00714534,0.326365,0.995024
421,724,3.30669,-0.00775137,0.326378,0.994685
427,718,3.30667,-0.00835828,0.326364,0.994187
433,712,3.30662,-0.00902049,0.326354,0.993823
439,706,3.30614,-0.00960818,0.326359,0.993464
445,700,3.30758,-0.00717534,0.325377,0.992921
451,694,3.30658,-0.00789795,0.325687,0.992278
457,688,3.30623,-0.00852016,0.32568,0.99188
463,682,3.30624,-0.00903661,0.325686,0.991584
469,676,3.3082,-0.0071031,0.324577,0.990707
475,670,3.30775,-0.00779655,0.324571,0.990249
481,664,3.30694,-0.00841123,0.325005,0.9897
487,658,3.3058,-0.00971932,0.325908,0.988598
493,652,3.30678,-0.00732036,0.324798,0.98801
499,646,3.30684,-0.00793454,0.324339,0.987728
505,640,3.30708,-0.00848406,0.324334,0.987383
511,634,3.30886,-0.00658689,0.323256,0.986568
517,628,3.30811,-0.00786386,0.323684,0.985585
523,622,3.3075,-0.00845217,0.323679,0.98518
529,616,3.30618,-0.00917347,0.324562,0.984405
535,610,3.30708,-0.00729078,0.323924,0.983413
541,604,3.30668,-0.00851512,0.323927,0.982657
547,598,3.30685,-0.00898538,0.323483,0.982509
553,592,3.3081,-0.00724503,0.322823,0.981375
559,586,3.30772,-0.00842343,0.323275,0.980486
565,580,3.30725,-0.0090004,0.323272,0.980137
571,574,3.30806,-0.00724792,0.32261,0.978969
577,568,3.30715,-0.0085322,0.322981,0.978004
583,562,3.30685,-0.00903673,0.322617,0.977846
589,556,3.30772,-0.00732234,0.321948,0.976653
595,550,3.30751,-0.00849011,0.321951,0.975909
601,544,3.30672,-0.00976101,0.322291,0.974932
607,538,3.30772,-0.00795922,0.321733,0.973825
613,532,3.30677,-0.00923472,0.322171,0.972852
619,526,3.30809,-0.00737415,0.32106,0.971879
625,520,3.30708,-0.0085974,0.321428,0.970937
631,514,3.30628,-0.00988997,0.321966,0.970001
637,508,3.3069,-0.00811145,0.3213,0.96883
643,502,3.3063,-0.00931984,0.321296,0.968056
649,496,3.30713,-0.00754717,0.320639,0.966912
655,490,3.30688,-0.00926247,0.320646,0.965835
661,484,3.30785,-0.00740964,0.319981,0.964718
667,478,3.30729,-0.00860279,0.31998,0.963965
673,472,3.30811,-0.00680317,0.319319,0.962807
679,466,3.30719,-0.00873391,0.319758,0.961387
685,460,3.30809,-0.00742215,0.319114,0.959948
691,454,3.30699,-0.00879325,0.319564,0.958938
697,448,3.3077,-0.00753378,0.3189,0.95741
703,442,3.30696,-0.00874821,0.318908,0.956652
709,436,3.30784,-0.0122019,0.317801,0.955037
715,430,3.30652,-0.0125908,0.318239,0.953327
721,424,3.30796,-0.00811942,0.316216,0.95169
727,418,3.30626,-0.0148633,0.316669,0.950016
733,412,3.30722,-0.0120002,0.315559,0.948382
739,406,3.30834,-0.00850379,0.313993,0.947259
745,400,3.30752,-0.00730798,0.313528,0.945527
751,394,3.30763,-0.0129119,0.313339,0.943593
757,388,3.30824,-0.00851626,0.312142,0.941622
763,382,3.30693,-0.00894126,0.312272,0.940036
769,376,3.30729,-0.0124852,0.311114,0.93836
775,370,3.30825,-0.010198,0.310016,0.936338
781,364,3.30721,-0.010446,0.310008,0.934911
787,358,3.30801,-0.00817048,0.308912,0.932897
793,352,3.30868,-0.011728,0.307804,0.931196
799,346,3.30788,-0.0110207,0.307413,0.929197
805,340,3.30869,-0.00653634,0.306265,0.927282
811,334,3.30929,-0.0106352,0.305173,0.925531
817,328,3.30778,-0.0100944,0.305161,0.923015
823,322,3.30833,-0.00727975,0.304059,0.92109
829,316,3.30858,-0.0130216,0.303418,0.91946
835,310,3.30898,-0.00921561,0.302319,0.917071
841,304,3.30782,-0.0085522,0.301873,0.915026
847,298,3.30763,-0.0121564,0.301205,0.913168
853,292,3.30802,-0.00837564,0.300168,0.910754
859,286,3.30812,-0.013159,0.299466,0.908215
865,280,3.30855,-0.0109338,0.29837,0.906114
871,274,3.30728,-0.0119174,0.298368,0.904219
877,268,3.30851,-0.00796451,0.296852,0.902078
883,262,3.30897,-0.0121396,0.295757,0.900046
889,256,3.30977,-0.00661452,0.294227,0.897499
895,250,3.30974,-0.0115206,0.293581,0.894899
901,244,3.31004,-0.00777966,0.292499,0.892429
907,238,3.31047,-0.0123915,0.291413,0.890157
913,232,3.30865,-0.0118362,0.291411,0.887881
919,226,3.3086,-0.00961627,0.290751,0.885613
925,220,3.30787,-0.0146167,0.290526,0.882839
931,214,3.30843,-0.0106431,0.289024,0.880635
937,208,3.30884,-0.00905292,0.288382,0.878061
943,202,3.30901,-0.0132966,0.287295,0.876019
949,196,3.30965,-0.0100563,0.286226,0.873491
955,190,3.30988,-0.0132726,0.285151,0.870526
961,184,3.31006,-0.00992539,0.284073,0.867767
967,178,3.30964,-0.00675208,0.283419,0.86476
973,172,3.30981,-0.0111039,0.282349,0.862716
979,166,3.31012,-0.00680633,0.281286,0.85921
985,160,3.31023,-0.0117458,0.280211,0.856802
991,154,3.31076,-0.00771932,0.278704,0.854513
997,148,3.30979,-0.0133897,0.278479,0.851417
1003,142,3.30949,-0.0112007,0.277838,0.849123
1009,136,3.30957,-0.0068175,0.276769,0.84561
1015,130,3.30935,-0.0119902,0.276121,0.842965
1021,124,3.3093,-0.0086072,0.275163,0.840157
1027,118,3.30881,-0.0136886,0.274393,0.837548
1033,112,3.30856,-0.010984,0.273774,0.83429
1039,106,3.3086,-0.0143378,0.273313,0.831391
1045,100,3.30851,-0.0109978,0.271734,0.828688
1051,94,3.30817,-0.00824809,0.270999,0.825378
1057,88,3.30747,-0.0152278,0.270787,0.822963
1063,82,3.30935,-0.00893616,0.268669,0.819671
1069,76,3.30865,-0.00561715,0.268035,0.81666
1075,70,3.30784,-0.009742,0.267393,0.813357
1081,64,3.30741,-0.01403,0.266758,0.809983
1087,58,3.30816,-0.0111297,0.265286,0.807023
1093,52,3.3075,-0.00838704,0.264646,0.803664
1099,46,3.30693,-0.0136619,0.264012,0.801093
1105,40,3.30909,-0.00731557,0.261913,0.797749
1111,34,3.30794,-0.00630013,0.261709,0.794632
1117,28,3.3061,-0.0124254,0.261922,0.791323
1123,22,3.30594,-0.0149593,0.260867,0.787794
1129,16,3.30629,-0.0120129,0.259396,0.784808
1135,10,3.30835,-0.0127352,0.257306,0.781454
1141,4,3.30768,-0.00991343,0.256685,0.778124
1142,3,3.30681,-0.0106974,0.257102,0.777578