File: hust_correlation_analysis/matrices/HUST_9-4_cycle_feature_matrix.csv
cycle_number,rul,voltage,current,capacity,charge_capacity
1,1977,3.31629,0.02206,0.274571,1.03893
10,1968,3.30445,-0.0152296,0.287697,1.02347
19,1959,3.30844,-0.0090293,0.284143,1.02821
28,1950,3.30842,-0.010543,0.282848,1.03071
37,1941,3.30986,-0.0106895,0.281655,1.03162
46,1932,3.31106,-0.0106343,0.281263,1.03164
55,1923,3.31196,-0.00878116,0.27992,1.03073
64,1914,3.31141,-0.00942327,0.279923,1.0304
73,1905,3.31317,-0.00749259,0.278842,1.02952
82,1896,3.31216,-0.01407,0.279958,1.02854
91,1887,3.31068,-0.01503,0.280357,1.0278
100,1878,3.31145,-0.0113478,0.279368,1.02703
109,1869,3.31284,-0.0094755,0.278896,1.02589
118,1860,3.31202,-0.0101291,0.278826,1.02534
127,1851,3.31275,-0.00830582,0.278136,1.02441
136,1842,3.31193,-0.0138878,0.279232,1.02373
145,1833,3.31197,-0.0101927,0.278673,1.02272
154,1824,3.31135,-0.0127284,0.278987,1.02199
163,1815,3.31163,-0.00929224,0.27838,1.02083
172,1806,3.31205,-0.0180466,0.279247,1.02038
181,1797,3.31049,-0.0106998,0.278929,1.01964
190,1788,3.3103,-0.0116052,0.278927,1.01918
199,1779,3.31191,-0.013696,0.278588,1.01893
208,1770,3.31162,-0.0102388,0.278366,1.01777
217,1761,3.31073,-0.01065,0.27839,1.01734
226,1752,3.3117,-0.0132473,0.278446,1.01658
235,1743,3.31208,-0.00940194,0.277853,1.01564
244,1734,3.31057,-0.00969957,0.278253,1.01525
253,1725,3.31104,-0.00987647,0.278252,1.01514
262,1716,3.30999,-0.0106238,0.278663,1.01455
271,1707,3.30943,-0.013161,0.278978,1.01382
280,1698,3.30963,-0.0142947,0.278724,1.01301
289,1689,3.31108,-0.0119369,0.278029,1.01231
298,1680,3.31099,-0.00785286,0.277006,1.01168
307,1671,3.31021,-0.0135741,0.278028,1.01149
316,1662,3.30998,-0.0138805,0.278025,1.01131
325,1653,3.3098,-0.0152776,0.278579,1.01015
334,1644,3.30932,-0.0111404,0.277821,1.00953
343,1635,3.31042,-0.0133573,0.277636,1.00901
352,1626,3.31006,-0.0143676,0.27789,1.00849
361,1617,3.30963,-0.0147325,0.278042,1.00808
370,1608,3.30885,-0.0153859,0.278043,1.00774
379,1599,3.31157,-0.00826745,0.276325,1.0065
388,1590,3.31117,-0.00887853,0.276331,1.00621
397,1581,3.31023,-0.00964806,0.276481,1.00558
406,1572,3.31137,-0.0118614,0.276401,1.00529
415,1563,3.30896,-0.0157817,0.277916,1.00498
424,1554,3.30935,-0.0132928,0.277223,1.0041
433,1545,3.30948,-0.013951,0.277227,1.00379
442,1536,3.30966,-0.0144747,0.277218,1.0035
451,1527,3.31081,-0.0122605,0.276655,1.00248
460,1518,3.31056,-0.0083169,0.275648,1.0015
469,1509,3.30912,-0.0116542,0.276757,1.00175
478,1500,3.31049,-0.00932044,0.275646,1.00102
487,1491,3.30893,-0.0153533,0.276843,1.00048
496,1482,3.30919,-0.0155937,0.276837,1.00037
505,1473,3.30954,-0.0113854,0.276223,0.999538
514,1464,3.30974,-0.00944247,0.275516,0.998332
523,1455,3.31058,-0.00936291,0.274942,0.998622
532,1446,3.31035,-0.0103672,0.275262,0.99789
541,1437,3.30835,-0.0114336,0.275931,0.997114
550,1428,3.30876,-0.013754,0.276016,0.996545
559,1419,3.31008,-0.0094918,0.27497,0.996183
568,1410,3.30955,-0.0100858,0.27462,0.995651
577,1401,3.30864,-0.0111163,0.275475,0.994879
586,1392,3.30955,-0.0132032,0.275474,0.994448
595,1383,3.30908,-0.0145852,0.275896,0.993548
604,1374,3.30819,-0.0151952,0.27589,0.993208
613,1365,3.30952,-0.0129641,0.27494,0.992202
622,1356,3.30914,-0.0118144,0.275003,0.991953
631,1347,3.31027,-0.00926154,0.273886,0.991288
640,1338,3.30786,-0.0149053,0.275744,0.991016
649,1329,3.30926,-0.0105805,0.274047,0.990421
658,1320,3.30916,-0.0116127,0.274467,0.989693
667,1311,3.30887,-0.0147461,0.274564,0.98742
676,1302,3.3083,-0.014985,0.274556,0.988609
685,1293,3.30943,-0.0109991,0.273923,0.9876
694,1284,3.30929,-0.013618,0.273854,0.987133
703,1275,3.30844,-0.014725,0.274275,0.986346
712,1266,3.30958,-0.0103447,0.272954,0.985757
721,1257,3.30932,-0.0114086,0.273378,0.98501
730,1248,3.30771,-0.012118,0.273803,0.984434
739,1239,3.30774,-0.0147952,0.273735,0.983931
748,1230,3.30887,-0.0153947,0.273476,0.983641
757,1221,3.30914,-0.0134065,0.272772,0.98246
766,1212,3.30746,-0.0124356,0.273261,0.981886
775,1203,3.30962,-0.0100081,0.271869,0.98113
784,1194,3.30856,-0.0159243,0.273363,0.980789
793,1185,3.30798,-0.0118662,0.272719,0.979776
802,1176,3.308,-0.0149965,0.272825,0.978855
811,1167,3.30851,-0.0104594,0.271999,0.978277
820,1158,3.30843,-0.01196,0.272178,0.977345
829,1149,3.30761,-0.0126393,0.272176,0.977
838,1140,3.30884,-0.00988569,0.271205,0.976174
847,1131,3.30905,-0.0109241,0.271202,0.975651
856,1122,3.30835,-0.0123372,0.271622,0.974715
865,1113,3.30722,-0.0151584,0.271993,0.973935
874,1104,3.3097,-0.0123163,0.270599,0.97339
883,1095,3.30971,-0.00894926,0.270367,0.972017
892,1086,3.3068,-0.0152944,0.271886,0.971264
901,1077,3.30853,-0.0123825,0.270488,0.97072
910,1068,3.30811,-0.0137816,0.270914,0.969814
919,1059,3.30872,-0.00957236,0.269817,0.969048
928,1050,3.3073,-0.0112046,0.270433,0.967818
937,1041,3.30779,-0.0135663,0.270376,0.966048
946,1032,3.30815,-0.0146035,0.27012,0.967025
955,1023,3.30687,-0.016019,0.270896,0.966113
964,1014,3.30762,-0.0140029,0.26994,0.964651
973,1005,3.30726,-0.0150859,0.270013,0.964144
982,996,3.30679,-0.0160581,0.270447,0.963463
991,987,3.30666,-0.0123567,0.269782,0.962216
1000,978,3.30593,-0.0152153,0.270165,0.96143
1009,969,3.30592,-0.0170373,0.270344,0.960343
1018,960,3.3074,-0.0140829,0.269182,0.959783
1027,951,3.3064,-0.0161001,0.269581,0.958388
1036,942,3.30644,-0.0136048,0.269088,0.957348
1045,933,3.30652,-0.0149027,0.269084,0.956987
1054,924,3.30686,-0.0110478,0.268404,0.955511
1063,915,3.30662,-0.0143088,0.268549,0.954599
1072,906,3.30631,-0.0100732,0.267864,0.953543
1081,897,3.30698,-0.0137173,0.268003,0.952445
1090,888,3.30585,-0.0128809,0.268052,0.951994
1099,879,3.30453,-0.0166569,0.268898,0.950607
1108,870,3.30441,-0.012354,0.268612,0.949567
1117,861,3.30648,-0.0101421,0.26652,0.948609
1126,852,3.30639,-0.0138449,0.267372,0.947269
1135,843,3.30582,-0.00981142,0.266674,0.946074
1144,834,3.30385,-0.0163788,0.267819,0.945855
1153,825,3.30571,-0.0146158,0.266829,0.944451
1162,816,3.3056,-0.0105203,0.26613,0.943516
1171,807,3.30483,-0.0128775,0.266774,0.941723
1180,798,3.30343,-0.0159349,0.267195,0.940934
1189,789,3.30328,-0.0177966,0.267392,0.939848
1198,780,3.30416,-0.0155719,0.266655,0.93866
1207,771,3.30533,-0.0141178,0.266004,0.937088
1216,762,3.30366,-0.0161521,0.266321,0.935697
1225,753,3.30409,-0.0139208,0.26558,0.93447
1234,744,3.30437,-0.0101263,0.264868,0.933119
1243,735,3.30397,-0.0116939,0.265149,0.932168
1252,726,3.30417,-0.00979436,0.26432,0.930756
1261,717,3.30107,-0.0175895,0.266428,0.929643
1270,708,3.30438,-0.00986098,0.26378,0.928256
1279,699,3.30302,-0.0118026,0.264234,0.927125
1288,690,3.30379,-0.0103358,0.2637,0.925303
1297,681,3.30229,-0.0122113,0.263913,0.924235
1306,672,3.30281,-0.0100056,0.263155,0.922961
1315,663,3.30331,-0.0142579,0.263351,0.921698
1324,654,3.30234,-0.0166827,0.264035,0.92017
1333,645,3.30226,-0.0147489,0.26328,0.918734
1342,636,3.30026,-0.0168456,0.26422,0.91733
1351,627,3.30059,-0.0136943,0.263228,0.915598
1360,618,3.30221,-0.0112827,0.261746,0.914641
1369,609,3.30098,-0.0136879,0.262687,0.913096
1378,600,3.3004,-0.0122904,0.262152,0.911193
1387,591,3.2995,-0.0162371,0.262615,0.910082
1396,582,3.29933,-0.012672,0.261864,0.908493
1405,573,3.30039,-0.011599,0.261325,0.906429
1414,564,3.30018,-0.0156027,0.261964,0.905339
1423,555,3.29881,-0.0185707,0.262252,0.903554
1432,546,3.30026,-0.0108597,0.260244,0.901672
1441,537,3.29895,-0.0154559,0.260957,0.900068
1450,528,3.29857,-0.0179874,0.261384,0.898759
1459,519,3.2982,-0.017212,0.26091,0.89655
1468,510,3.29834,-0.0196779,0.261146,0.895263
1477,501,3.29726,-0.0186145,0.260873,0.893167
1486,492,3.29813,-0.0173503,0.259849,0.891416
1495,483,3.2963,-0.0201616,0.260589,0.889742
1504,474,3.2974,-0.0191597,0.259555,0.887855
1513,465,3.29667,-0.017791,0.25927,0.885847
1522,456,3.29785,-0.0167491,0.258236,0.883957
1531,447,3.29714,-0.0140342,0.257944,0.881658
1540,438,3.29613,-0.0187003,0.258207,0.880329
1549,429,3.29614,-0.0178458,0.257675,0.878114
1558,420,3.29663,-0.01719,0.257141,0.875802
1567,411,3.29635,-0.0163728,0.256611,0.873538
1576,402,3.29359,-0.0199142,0.257818,0.871589
1585,393,3.29344,-0.0183762,0.2571,0.869603
1594,384,3.29427,-0.0180106,0.25605,0.867402
1603,375,3.29466,-0.0242228,0.255065,0.86497
1612,366,3.29489,-0.0190229,0.253434,0.862618
1621,357,3.29632,-0.0135972,0.251361,0.860627
1630,348,3.29665,-0.0157815,0.249286,0.858212
1639,339,3.29431,-0.0181125,0.249783,0.855573
1648,330,3.29406,-0.0239379,0.248726,0.853341
1657,321,3.29452,-0.0217552,0.247668,0.850701
1666,312,3.29522,-0.0101331,0.244722,0.84787
1675,303,3.29541,-0.0164895,0.243651,0.845444
1684,294,3.29431,-0.018804,0.243453,0.843036
1693,285,3.29504,-0.0174745,0.242386,0.84122
1702,276,3.29575,-0.0204022,0.240571,0.838052
1711,267,3.29584,-0.0180384,0.239232,0.835707
1720,258,3.2968,-0.01766,0.236752,0.832963
1729,249,3.29682,-0.0156894,0.235591,0.830381
1738,240,3.29752,-0.0181487,0.233585,0.82747
1747,231,3.29606,-0.0200299,0.233423,0.825264
1756,222,3.29604,-0.0159151,0.232492,0.822137
1765,213,3.29569,-0.0230076,0.231241,0.819512
1774,204,3.29575,-0.0169063,0.229166,0.816431
1783,195,3.2955,-0.0259276,0.228555,0.814023
1792,186,3.2955,-0.0212076,0.226967,0.811356
1801,177,3.29776,-0.00998107,0.223712,0.808206
1810,168,3.29639,-0.0200749,0.223568,0.805161
1819,159,3.29646,-0.0129487,0.222108,0.802404
1828,150,3.29531,-0.0273238,0.221699,0.800092
1837,141,3.29548,-0.0189019,0.219944,0.796493
1846,132,3.29437,-0.0187776,0.219341,0.794109
1855,123,3.29624,-0.0193891,0.216726,0.790995
1864,114,3.29659,-0.0149678,0.215117,0.788147
1873,105,3.29654,-0.0228458,0.21377,0.785344
1882,96,3.29721,-0.0203716,0.212287,0.782692
1891,87,3.29971,-0.00821887,0.209161,0.779678
1900,78,3.29856,-0.0163041,0.208484,0.776562
1909,69,3.29791,-0.0143564,0.2078,0.773465
1918,60,3.29703,-0.0167695,0.20725,0.771367
1927,51,3.29497,-0.0255374,0.207045,0.767802
1936,42,3.29728,-0.0155669,0.204333,0.764851
1945,33,3.29468,-0.0281755,0.204262,0.762499
1954,24,3.29371,-0.0269264,0.2037,0.759177
1963,15,3.29496,-0.0217978,0.201741,0.756534
1972,6,3.29337,-0.0281324,0.200773,0.753205
1975,3,3.29532,-0.0224873,0.19914,0.751881