File: hust_correlation_analysis/matrices/HUST_2-7_cycle_feature_matrix.csv
cycle_number,rul,voltage,current,capacity,charge_capacity
1,2204,3.32808,0.02704,0.262263,1.02424
12,2193,3.3139,-0.0170398,0.277712,1.00543
23,2182,3.316975,-0.0166894,0.274973,1.01265
34,2171,3.31692,-0.0184194,0.273895,1.01515
45,2160,3.31794,-0.0184491,0.272644,1.01585
56,2149,3.32015,-0.0157716,0.270796,1.01549
67,2138,3.32122,-0.0169606,0.269971,1.01537
78,2127,3.3202,-0.0192544,0.270356,1.01525
89,2116,3.32226,-0.016266,0.268545,1.01388
100,2105,3.32124,-0.0186208,0.269323,1.01345
111,2094,3.32269,-0.0157558,0.267925,1.01179
122,2083,3.32126,-0.0187165,0.269282,1.01111
133,2072,3.3205,-0.0184688,0.268729,1.01
144,2061,3.32134,-0.0165492,0.267695,1.0088
155,2050,3.32037,-0.0178727,0.268506,1.00768
166,2039,3.32179,-0.0159706,0.267503,1.00654
177,2028,3.32117,-0.017389,0.267913,1.00566
188,2017,3.31974,-0.0186992,0.269153,1.00433
199,2006,3.32093,-0.0161215,0.268123,1.00343
210,1995,3.32013,-0.0175212,0.268532,1.00252
221,1984,3.3193,-0.0189597,0.268941,1.00158
232,1973,3.32033,-0.0163511,0.26817,1.00069
243,1962,3.31952,-0.0176254,0.268328,0.999877
254,1951,3.31853,-0.0183571,0.268714,0.999177
265,1940,3.31771,-0.0207579,0.269513,0.998706
276,1929,3.31887,-0.0181165,0.268471,0.997791
287,1918,3.31832,-0.0194837,0.26888,0.996876
298,1907,3.31792,-0.0208333,0.268901,0.996342
309,1896,3.31941,-0.0181428,0.267849,0.995409
320,1885,3.31871,-0.0194817,0.268288,0.99461
331,1874,3.31761,-0.0209573,0.269123,0.993407
342,1863,3.31926,-0.018136,0.267656,0.992808
353,1852,3.31901,-0.018836,0.267665,0.992314
364,1841,3.31817,-0.0203307,0.268082,0.99159
375,1830,3.3194,-0.016601,0.267073,0.990009
386,1819,3.318,-0.0190269,0.267899,0.989595
397,1808,3.31746,-0.0198261,0.267903,0.98924
408,1797,3.31671,-0.019558,0.268357,0.98794
419,1786,3.3178,-0.0166747,0.267302,0.98709
430,1775,3.31739,-0.0176432,0.267751,0.986486
441,1764,3.31666,-0.0188475,0.268162,0.985619
452,1753,3.31556,-0.0197319,0.268599,0.984988
463,1742,3.3172,-0.0171093,0.267577,0.984136
474,1731,3.31669,-0.0183058,0.267999,0.983313
485,1720,3.31621,-0.0192238,0.268443,0.982699
496,1709,3.31507,-0.0199442,0.268861,0.982057
507,1698,3.31713,-0.0170661,0.266928,0.981666
518,1687,3.31574,-0.0178017,0.267803,0.980861
529,1676,3.31581,-0.0192284,0.267789,0.980183
540,1665,3.31498,-0.0199674,0.268235,0.979638
551,1654,3.31613,-0.017227,0.26718,0.978707
562,1643,3.31503,-0.0178589,0.267607,0.978135
573,1632,3.31496,-0.0194836,0.268071,0.977278
584,1621,3.31432,-0.0199645,0.268629,0.976954
595,1610,3.3154,-0.0173921,0.267009,0.97602
606,1599,3.31546,-0.0178999,0.267008,0.975815
617,1588,3.31512,-0.0194501,0.267438,0.974833
628,1577,3.31407,-0.0202956,0.267914,0.97435
639,1566,3.31522,-0.0174264,0.267302,0.973198
650,1555,3.31477,-0.0190555,0.267749,0.972258
661,1544,3.31404,-0.0194389,0.268349,0.972141
672,1533,3.31518,-0.0167428,0.266703,0.971175
683,1522,3.31461,-0.0183627,0.267145,0.970208
694,1511,3.31402,-0.0189599,0.267137,0.969928
705,1500,3.31373,-0.0197095,0.267128,0.969583
716,1489,3.3133,-0.020513,0.267677,0.968993
727,1478,3.31433,-0.0183267,0.266508,0.967753
738,1467,3.3133,-0.0191012,0.266955,0.967164
749,1456,3.3133,-0.0199167,0.267275,0.966847
760,1445,3.31434,-0.0177135,0.26634,0.965373
771,1434,3.31411,-0.0185561,0.266358,0.965074
782,1423,3.31297,-0.0193377,0.266278,0.964474
793,1412,3.31257,-0.0207555,0.266785,0.963823
804,1401,3.31422,-0.017947,0.265721,0.962818
815,1390,3.31315,-0.0193457,0.266168,0.962004
826,1379,3.31232,-0.0202291,0.266627,0.961384
837,1368,3.31453,-0.0180144,0.265208,0.960473
848,1357,3.31333,-0.0186979,0.26555,0.959871
859,1346,3.31266,-0.0195543,0.265996,0.959212
870,1335,3.31173,-0.0203005,0.265982,0.958869
881,1324,3.3133,-0.0180402,0.264908,0.957669
892,1313,3.31301,-0.0196048,0.264874,0.956812
903,1302,3.31215,-0.0202854,0.26536,0.956456
914,1291,3.31371,-0.0181567,0.264301,0.955248
925,1280,3.31353,-0.0189017,0.264303,0.954956
936,1269,3.31121,-0.0206432,0.265666,0.953372
947,1258,3.31342,-0.0176338,0.264144,0.9528
958,1247,3.31209,-0.019048,0.2646,0.951936
969,1236,3.31156,-0.0206453,0.265057,0.950992
980,1225,3.31072,-0.0214312,0.265063,0.950692
991,1214,3.31152,-0.0192861,0.264437,0.949117
1002,1203,3.31159,-0.0198898,0.263951,0.949079
1013,1192,3.31055,-0.0216008,0.264901,0.947914
1024,1181,3.31215,-0.0193207,0.263341,0.946917
1035,1170,3.31072,-0.0210009,0.264287,0.945752
1046,1159,3.31,-0.0216784,0.264281,0.945452
1057,1148,3.31159,-0.0194745,0.263185,0.944149
1068,1137,3.31068,-0.02099,0.263659,0.943298
1079,1126,3.30933,-0.022088,0.264123,0.94256
1090,1115,3.31075,-0.0195717,0.263023,0.941386
1101,1104,3.30981,-0.0212385,0.263489,0.940431
1112,1093,3.31147,-0.0190134,0.262414,0.939216
1123,1082,3.3109,-0.0204002,0.262694,0.937195
1134,1071,3.30945,-0.0220402,0.262788,0.937511
1145,1060,3.31067,-0.0190256,0.261787,0.936762
1156,1049,3.31006,-0.0207505,0.262277,0.93586
1167,1038,3.31086,-0.0192316,0.261652,0.934005
1178,1027,3.310014,-0.019981,0.261632,0.933632
1189,1016,3.30894,-0.0215922,0.262103,0.932702
1200,1005,3.31037,-0.0192245,0.260995,0.931438
1211,994,3.30903,-0.0210346,0.261462,0.930397
1222,983,3.30781,-0.0226397,0.262267,0.929548
1233,972,3.30949,-0.0202831,0.260842,0.928268
1244,961,3.30815,-0.0219689,0.261318,0.927555
1255,950,3.31013,-0.0195035,0.259747,0.926428
1266,939,3.30841,-0.0212121,0.260701,0.92516
1277,928,3.30918,-0.0197201,0.260075,0.923266
1288,917,3.30854,-0.0213491,0.260688,0.922657
1299,906,3.30716,-0.022857,0.260653,0.92179
1310,895,3.30847,-0.0204989,0.259454,0.920512
1321,884,3.30691,-0.0231597,0.260437,0.918952
1332,873,3.30849,-0.0206861,0.25883,0.917969
1343,862,3.30643,-0.0224445,0.259806,0.916725
1354,851,3.3084,-0.0209174,0.258701,0.915162
1365,840,3.30686,-0.0225305,0.259185,0.913008
1376,829,3.30793,-0.0200488,0.258066,0.912984
1387,818,3.30628,-0.0226775,0.259058,0.911418
1398,807,3.30738,-0.021121,0.25793,0.911098
1409,796,3.30575,-0.0229272,0.258424,0.908804
1420,785,3.30717,-0.0212785,0.25729,0.907189
1431,774,3.30577,-0.0229496,0.257775,0.906059
1442,763,3.30625,-0.0214028,0.257757,0.904298
1453,752,3.30461,-0.0241512,0.258163,0.902738
1464,741,3.30608,-0.0216252,0.256583,0.901663
1475,730,3.30458,-0.0241245,0.256985,0.900373
1486,719,3.30536,-0.0227066,0.256365,0.898434
1497,708,3.30658,-0.0207755,0.255209,0.896854
1508,697,3.30418,-0.0236233,0.256216,0.895181
1519,686,3.30509,-0.0219583,0.255084,0.893582
1530,675,3.30366,-0.0246101,0.255586,0.892298
1541,664,3.30404,-0.0230002,0.255219,0.890347
1552,653,3.30472,-0.0223421,0.254328,0.88808
1563,642,3.30224,-0.0253006,0.255366,0.886422
1574,631,3.30346,-0.023489,0.254212,0.884817
1585,620,3.30408,-0.0227476,0.253583,0.882549
1596,609,3.30215,-0.0255192,0.254106,0.881264
1607,598,3.30252,-0.0237699,0.253468,0.879322
1618,587,3.30271,-0.0229865,0.252831,0.877027
1629,576,3.30303,-0.0291026,0.251671,0.874736
1640,565,3.3014,-0.0294887,0.251656,0.873395
1651,554,3.30251,-0.0240028,0.249956,0.871028
1662,543,3.30242,-0.0309829,0.248793,0.868479
1673,532,3.30344,-0.0269649,0.247064,0.866647
1684,521,3.30117,-0.0260822,0.247048,0.864582
1695,510,3.3018,-0.0323065,0.245877,0.862303
1706,499,3.30181,-0.0314752,0.24527,0.859982
1717,488,3.30264,-0.0283452,0.24348,0.858147
1728,477,3.3036,-0.0201778,0.241254,0.855578
1739,466,3.30098,-0.0241556,0.242303,0.853663
1750,455,3.30101,-0.0303762,0.241095,0.851315
1761,444,3.30182,-0.0326444,0.238856,0.848656
1772,433,3.30185,-0.0319281,0.238169,0.846345
1783,422,3.30229,-0.0262467,0.236437,0.843951
1794,411,3.3026,-0.023077,0.23522,0.841564
1805,400,3.30232,-0.0304258,0.233986,0.838865
1816,389,3.30248,-0.02722,0.233032,0.836554
1827,378,3.30009,-0.0271048,0.232776,0.834267
1838,367,3.30048,-0.0320078,0.231033,0.831588
1849,356,3.3011,-0.0263911,0.229303,0.829178
1860,345,3.30095,-0.0337955,0.228063,0.82654
1871,334,3.30155,-0.0288326,0.226319,0.823879
1882,323,3.30167,-0.0337926,0.224574,0.82121
1893,312,3.30139,-0.0289661,0.22333,0.818183
1904,301,3.30117,-0.0283425,0.222588,0.815835
1915,290,3.30153,-0.0259111,0.22133,0.813179
1926,279,3.30151,-0.0309385,0.219549,0.810439
1937,268,3.30184,-0.0334359,0.217293,0.80773
1948,257,3.30246,-0.0258342,0.215624,0.804955
1959,246,3.30241,-0.0233878,0.213749,0.80226
1970,235,3.30256,-0.0311363,0.212487,0.799658
1981,224,3.30255,-0.0235495,0.210711,0.796533
1992,213,3.30208,-0.0313429,0.20942,0.793842
2003,202,3.30209,-0.0315478,0.208622,0.791273
2014,191,3.3024,-0.0250242,0.206845,0.787833
2025,180,3.3022,-0.0301055,0.20506,0.785162
2036,169,3.30261,-0.0249509,0.203276,0.782448
2047,158,3.30204,-0.0356696,0.202462,0.779893
2058,147,3.30195,-0.0317821,0.201145,0.776466
2069,136,3.30177,-0.0292497,0.199812,0.773776
2080,125,3.30398,-0.0306071,0.196692,0.77003
2091,114,3.30564,-0.0223998,0.193982,0.766347
2102,103,3.30524,-0.030497,0.192611,0.765005
2113,92,3.30578,-0.0261536,0.190802,0.762022
2124,81,3.3056,-0.029965,0.188531,0.758899
2135,70,3.30549,-0.0362317,0.186716,0.75592
2146,59,3.30472,-0.0323404,0.185359,0.752484
2157,48,3.30873,-0.0333093,0.181501,0.749488
2168,37,3.30853,-0.0275942,0.180043,0.745714
2179,26,3.30776,-0.0370422,0.178107,0.742752
2190,15,3.31177,-0.0228988,0.173616,0.738885
2201,4,3.31257,-0.0275753,0.171156,0.73587
2202,3,3.31216,-0.0276714,0.17096,0.735856