File: hust_correlation_analysis/matrices/HUST_7-5_cycle_feature_matrix.csv
cycle_number,rul,voltage,current,capacity,charge_capacity
3,1875,3.29036,-0.0103601,0.322971,1.03002
12,1866,3.29708,-0.00988529,0.318436,1.04221
21,1857,3.29959,-0.009302,0.316364,1.046
30,1848,3.3019,-0.00816002,0.313974,1.04763
39,1839,3.30447,-0.0074171,0.312411,1.04877
48,1830,3.30404,-0.00814832,0.312408,1.04829
57,1821,3.30425,-0.00875656,0.312408,1.04787
66,1812,3.30343,-0.0094198,0.312025,1.0476
75,1803,3.3042,-0.00878179,0.31131,1.04589
84,1794,3.30433,-0.00924059,0.311152,1.04559
93,1785,3.30592,-0.0075453,0.310224,1.04478
102,1776,3.30531,-0.00816371,0.31059,1.04415
111,1767,3.30476,-0.00984757,0.310996,1.04294
120,1758,3.30531,-0.00763752,0.310257,1.04219
129,1749,3.30514,-0.00875709,0.310658,1.04131
138,1740,3.30524,-0.00922385,0.310661,1.04101
147,1731,3.30558,-0.00768736,0.310321,1.03969
156,1722,3.30479,-0.00826997,0.310328,1.03932
165,1713,3.30453,-0.00872699,0.310706,1.0388
174,1704,3.30474,-0.00978362,0.310706,1.0381
183,1695,3.3061,-0.00764811,0.310152,1.03729
192,1686,3.3046,-0.00833518,0.310359,1.03646
201,1677,3.30481,-0.00879295,0.310363,1.03639
210,1668,3.3044,-0.00933148,0.310731,1.03577
219,1659,3.30307,-0.0108844,0.311861,1.03543
228,1650,3.30483,-0.00783948,0.310363,1.03431
237,1641,3.30444,-0.0084376,0.310389,1.03396
246,1632,3.30457,-0.0094599,0.310514,1.03335
255,1623,3.30321,-0.0101373,0.310781,1.03271
264,1614,3.30526,-0.00769855,0.3093,1.03253
273,1605,3.3055,-0.00823922,0.309285,1.03213
282,1596,3.3044,-0.00887725,0.309682,1.0316
291,1587,3.3032,-0.0100926,0.310462,1.03044
300,1578,3.3054,-0.00775749,0.309078,1.03011
309,1569,3.30557,-0.00832862,0.309063,1.02978
318,1560,3.30384,-0.00897148,0.310202,1.029
327,1551,3.30448,-0.0094527,0.309374,1.02892
336,1542,3.30407,-0.00996828,0.309843,1.02843
345,1533,3.30461,-0.00781786,0.309041,1.02629
354,1524,3.30531,-0.00881114,0.309053,1.02701
363,1515,3.30382,-0.0089738,0.309436,1.02671
372,1506,3.30365,-0.010076,0.309851,1.02587
381,1497,3.30544,-0.00772932,0.308726,1.02538
390,1488,3.305,-0.00842262,0.308735,1.02493
399,1479,3.30378,-0.0089669,0.309594,1.0242
408,1470,3.30443,-0.00943153,0.309095,1.02398
417,1461,3.30371,-0.0101707,0.309497,1.02335
426,1452,3.30483,-0.00778575,0.308373,1.02286
435,1443,3.30494,-0.00843042,0.308774,1.02229
444,1434,3.30393,-0.00903134,0.308776,1.02191
453,1425,3.30465,-0.00950639,0.308842,1.02175
462,1416,3.30336,-0.0100601,0.30918,1.0211
471,1407,3.30488,-0.00788371,0.308515,1.02045
480,1398,3.30494,-0.00844099,0.30818,1.02012
489,1389,3.30401,-0.00960037,0.308457,1.01919
498,1380,3.30365,-0.0101879,0.308845,1.0186
507,1371,3.30545,-0.00786837,0.308153,1.01801
516,1362,3.30389,-0.00847671,0.308139,1.01757
525,1353,3.3044,-0.00896638,0.308143,1.01726
534,1344,3.30436,-0.00947386,0.308137,1.01692
543,1335,3.30462,-0.00787156,0.307815,1.01558
552,1326,3.30492,-0.0083834,0.307805,1.01521
561,1317,3.304,-0.00908025,0.308195,1.01458
570,1308,3.304,-0.00962315,0.308202,1.01423
579,1299,3.30312,-0.0102676,0.308599,1.01363
588,1290,3.30456,-0.00798462,0.307471,1.01305
597,1281,3.30462,-0.00846305,0.307492,1.01282
606,1272,3.30353,-0.00970689,0.307889,1.01183
615,1263,3.3037,-0.0101568,0.307898,1.01159
624,1254,3.30522,-0.00788495,0.30686,1.011
633,1245,3.30361,-0.00917716,0.307576,1.00978
642,1236,3.30429,-0.0090999,0.307137,1.00991
651,1227,3.30314,-0.0102798,0.307565,1.00905
660,1218,3.30462,-0.00802825,0.306911,1.00825
669,1209,3.3052,-0.00844038,0.306443,1.00821
678,1200,3.30337,-0.00980135,0.307253,1.00701
687,1191,3.30337,-0.0103238,0.307246,1.00664
696,1182,3.30524,-0.00796935,0.30618,1.00606
705,1173,3.30364,-0.00890011,0.30654,1.00536
714,1164,3.30408,-0.00966933,0.306538,1.00489
723,1155,3.30358,-0.0103982,0.306938,1.00424
732,1146,3.30394,-0.00865815,0.30624,1.00322
741,1137,3.30441,-0.00916731,0.306247,1.0029
750,1128,3.30398,-0.00977493,0.306655,1.00235
759,1119,3.30435,-0.00813395,0.305934,1.00117
768,1110,3.30376,-0.00920463,0.306329,1.0003
777,1101,3.30439,-0.00978333,0.305915,1.00004
786,1092,3.30322,-0.0104488,0.306312,0.999414
795,1083,3.3035,-0.00817433,0.305569,0.998562
804,1074,3.30443,-0.00927707,0.305588,0.997937
813,1065,3.30339,-0.00991492,0.306116,0.997365
822,1056,3.3045,-0.00811937,0.305767,0.996321
831,1047,3.30375,-0.00879567,0.305284,0.995865
840,1038,3.30306,-0.0099852,0.30569,0.994904
849,1029,3.30246,-0.0105345,0.306106,0.994434
858,1020,3.30387,-0.00874278,0.304983,0.993509
867,1011,3.30402,-0.0092861,0.304971,0.993395
876,1002,3.30321,-0.0105191,0.305397,0.992219
885,993,3.30441,-0.00818889,0.304668,0.991442
894,984,3.30344,-0.00938465,0.305093,0.990572
903,975,3.30292,-0.0105821,0.305086,0.989756
912,966,3.30339,-0.00901002,0.304787,0.988375
921,957,3.30283,-0.0094599,0.305208,0.987961
930,948,3.30243,-0.0106193,0.30519,0.987152
939,939,3.30353,-0.00896865,0.304939,0.985939
948,930,3.30385,-0.00938347,0.304047,0.985823
957,921,3.30268,-0.0107531,0.304876,0.9846
966,912,3.30422,-0.008198,0.303763,0.984206
975,903,3.30317,-0.00948773,0.304165,0.983167
984,894,3.30161,-0.010875,0.305014,0.982034
993,885,3.30271,-0.0090641,0.304299,0.980906
1002,876,3.30142,-0.0102571,0.304708,0.979975
1011,867,3.30273,-0.00845367,0.303993,0.978849
1020,858,3.30241,-0.00962497,0.303991,0.978091
1029,849,3.30141,-0.0103092,0.304405,0.9775
1038,840,3.3029,-0.00899414,0.303633,0.976062
1047,831,3.30192,-0.00970248,0.304119,0.975461
1056,822,3.30346,-0.00776228,0.303055,0.974583
1065,813,3.30258,-0.00903304,0.303409,0.973629
1074,804,3.30101,-0.0103267,0.304257,0.972499
1083,795,3.30186,-0.00912493,0.303549,0.971005
1092,786,3.30093,-0.0103268,0.303976,0.970065
1101,777,3.30162,-0.0085352,0.303255,0.968892
1110,768,3.30071,-0.00988877,0.303675,0.967866
1119,759,3.29971,-0.01118,0.304089,0.966864
1128,750,3.30172,-0.00928737,0.302969,0.965974
1137,741,3.30097,-0.0104581,0.303398,0.965126
1146,732,3.30181,-0.00869562,0.302669,0.963855
1155,723,3.30107,-0.010521,0.303102,0.962589
1164,714,3.30137,-0.00863914,0.302393,0.961473
1173,705,3.29959,-0.0100502,0.303261,0.960276
1182,696,3.30031,-0.00881694,0.302554,0.958766
1191,687,3.30018,-0.00992045,0.302558,0.958315
1200,678,3.30166,-0.00871412,0.301853,0.956572
1209,669,3.30011,-0.0104642,0.302736,0.955213
1218,660,3.3,-0.00889334,0.302466,0.953734
1227,651,3.30023,-0.00999328,0.302468,0.953055
1236,642,3.30093,-0.00853243,0.301756,0.951645
1245,633,3.29832,-0.010818,0.303073,0.949767
1254,624,3.29956,-0.00950664,0.302383,0.948309
1263,615,3.29742,-0.0114808,0.303278,0.946786
1272,606,3.29855,-0.00953046,0.30256,0.945645
1281,597,3.29937,-0.00876916,0.301892,0.943916
1290,588,3.29852,-0.010228,0.302282,0.9427
1299,579,3.29855,-0.00898084,0.302013,0.940936
1308,570,3.298,-0.0109054,0.302471,0.939679
1317,561,3.29804,-0.00902971,0.301741,0.938361
1326,552,3.29718,-0.0110228,0.302201,0.937039
1335,543,3.29757,-0.0104262,0.302434,0.934858
1344,534,3.2977,-0.00903763,0.301715,0.933291
1353,525,3.2958,-0.0112412,0.302226,0.931667
1362,516,3.29602,-0.00988383,0.301906,0.930081
1371,507,3.29742,-0.00840253,0.301337,0.928568
1380,498,3.29578,-0.0105598,0.302094,0.926942
1389,489,3.29505,-0.0101991,0.301798,0.924645
1398,480,3.29641,-0.00927407,0.301166,0.922878
1407,471,3.29443,-0.0114389,0.302092,0.921262
1416,462,3.29447,-0.0158124,0.301405,0.919153
1425,453,3.29494,-0.0135551,0.3007,0.916872
1434,444,3.2948,-0.011235,0.299995,0.914611
1443,435,3.29419,-0.0136981,0.298595,0.912386
1452,426,3.29498,-0.0113945,0.297424,0.910492
1461,417,3.2943,-0.0108326,0.297659,0.908168
1470,408,3.29457,-0.0128536,0.296004,0.906142
1479,399,3.29527,-0.0106195,0.295361,0.904077
1488,390,3.29337,-0.0134934,0.29621,0.90203
1497,381,3.29367,-0.0151315,0.294615,0.899376
1506,372,3.29533,-0.00895667,0.292062,0.897423
1515,363,3.294,-0.00860348,0.292749,0.894833
1524,354,3.2947,-0.00794799,0.292067,0.892896
1533,345,3.2953,-0.00761267,0.28997,0.890135
1542,336,3.29485,-0.013077,0.28927,0.887419
1551,327,3.29585,-0.00884152,0.288136,0.885192
1560,318,3.29279,-0.010749,0.28904,0.882487
1569,309,3.29359,-0.013281,0.287401,0.880437
1578,300,3.2939,-0.00987442,0.286262,0.877717
1587,291,3.29358,-0.00932411,0.286014,0.875514
1596,282,3.29319,-0.014661,0.285303,0.872878
1605,273,3.29382,-0.00921899,0.283684,0.870099
1614,264,3.29395,-0.0129538,0.282525,0.867116
1623,255,3.29388,-0.0111542,0.281961,0.864665
1632,246,3.29328,-0.0147961,0.281129,0.861779
1641,237,3.29401,-0.0111226,0.279519,0.859261
1650,228,3.29366,-0.00948979,0.279274,0.856419
1659,219,3.29308,-0.0136785,0.278126,0.85338
1668,210,3.294,-0.00919864,0.276509,0.851271
1677,201,3.29332,-0.0137291,0.275818,0.847889
1686,192,3.29226,-0.0139782,0.27603,0.845142
1695,183,3.29358,-0.0143223,0.273638,0.842131
1704,174,3.29194,-0.014662,0.274287,0.839175
1713,165,3.29435,-0.0127763,0.270994,0.836374
1722,156,3.29429,-0.00992733,0.270296,0.833052
1731,147,3.29391,-0.00992848,0.270044,0.830561
1740,138,3.29454,-0.0105257,0.267551,0.827407
1749,129,3.29297,-0.0134357,0.268662,0.824259
1758,120,3.29357,-0.0150158,0.26661,0.821673
1767,111,3.29216,-0.0141332,0.266798,0.818223
1776,102,3.29443,-0.0130118,0.264074,0.814795
1785,93,3.2938,-0.0120146,0.263817,0.811609
1794,84,3.29377,-0.00825891,0.262679,0.808829
1803,75,3.29372,-0.0107569,0.261113,0.805708
1812,66,3.29269,-0.0116241,0.261307,0.802616
1821,57,3.29176,-0.009881,0.261072,0.799767
1830,48,3.29312,-0.0111332,0.258591,0.796317
1839,39,3.29354,-0.0139764,0.257662,0.792794
1848,30,3.29203,-0.0169885,0.258313,0.789746
1857,21,3.29311,-0.0097788,0.25583,0.786655
1866,12,3.29198,-0.0126103,0.254695,0.78319
1875,3,3.29394,-0.0140035,0.252901,0.779545