File: hust_correlation_analysis/matrices/HUST_1-1_cycle_feature_matrix.csv
cycle_number,rul,voltage,current,capacity,charge_capacity
1,1506,3.30667,-0.00483905,0.370936,1.04004
8,1499,3.29895,-0.00436935,0.374831,1.03433
15,1492,3.29927,-0.00545161,0.374363,1.03369
22,1485,3.30069,-0.00435186,0.373391,1.03243
29,1478,3.30052,-0.00494454,0.372893,1.03204
36,1471,3.30031,-0.00548137,0.372862,1.03161
43,1464,3.30026,-0.00663656,0.37286,1.03076
50,1457,3.30137,-0.00446212,0.371883,1.03024
57,1450,3.30135,-0.00507396,0.371874,1.02979
64,1443,3.30078,-0.00622639,0.372324,1.02881
71,1436,3.30077,-0.00661412,0.371889,1.02872
78,1429,3.30177,-0.00454701,0.371347,1.02795
85,1422,3.30177,-0.00513049,0.371346,1.02754
92,1415,3.30167,-0.00611012,0.371357,1.02686
99,1408,3.30145,-0.00661627,0.371353,1.02647
106,1401,3.30275,-0.00452308,0.370372,1.02588
113,1394,3.30268,-0.00499142,0.370378,1.02556
120,1387,3.30215,-0.00557597,0.370963,1.02498
127,1380,3.3019,-0.00613898,0.370824,1.02458
134,1373,3.30175,-0.00659993,0.370833,1.02429
141,1366,3.3032,-0.00447759,0.36985,1.02368
148,1359,3.30279,-0.00505273,0.370317,1.02318
155,1352,3.30288,-0.00500366,0.369881,1.02339
162,1345,3.30269,-0.00554095,0.369867,1.02296
169,1338,3.30222,-0.00605269,0.370315,1.02246
176,1331,3.30198,-0.0062651,0.370307,1.02223
183,1324,3.30182,-0.00666284,0.370312,1.022
190,1317,3.30333,-0.00450714,0.369333,1.02146
197,1310,3.3032,-0.0050081,0.369341,1.0211
204,1303,3.30312,-0.00501565,0.369319,1.02105
211,1296,3.30302,-0.00499991,0.369281,1.02096
218,1289,3.30266,-0.00522042,0.369294,1.02081
225,1282,3.30242,-0.00629337,0.369747,1.01991
232,1275,3.30206,-0.00627463,0.369744,1.01993
239,1268,3.30378,-0.0044982,0.368757,1.01914
246,1261,3.30341,-0.00465862,0.368772,1.01899
253,1254,3.30346,-0.00516736,0.368778,1.01864
260,1247,3.30331,-0.00560655,0.368788,1.01836
267,1240,3.30297,-0.00563822,0.368777,1.0183
274,1233,3.30298,-0.00622849,0.368776,1.01786
281,1226,3.30278,-0.00672271,0.36879,1.01756
288,1219,3.30392,-0.00458786,0.368264,1.01683
295,1212,3.30398,-0.00457363,0.3678,1.01695
302,1205,3.30402,-0.00503786,0.367818,1.01693
309,1198,3.30343,-0.00565897,0.368258,1.01605
316,1191,3.30314,-0.0057154,0.368248,1.01602
323,1184,3.30311,-0.00668447,0.368283,1.01537
330,1177,3.30456,-0.00442927,0.367298,1.01486
337,1170,3.30414,-0.0045656,0.367293,1.01474
344,1163,3.30398,-0.00561429,0.367786,1.01395
351,1156,3.30397,-0.00553562,0.367179,1.01406
358,1149,3.30346,-0.0061824,0.367756,1.01345
365,1142,3.30328,-0.00668507,0.367787,1.01318
372,1135,3.30485,-0.00447311,0.366811,1.01265
379,1128,3.30453,-0.00447229,0.366785,1.01259
386,1121,3.30448,-0.00553979,0.36682,1.0119
393,1114,3.30433,-0.00557002,0.366782,1.01178
400,1107,3.30381,-0.00622116,0.367227,1.01116
407,1100,3.30371,-0.00619575,0.366779,1.01132
414,1093,3.30339,-0.00675227,0.367224,1.01077
421,1086,3.30481,-0.004549,0.366249,1.01022
428,1079,3.3046,-0.00513344,0.366415,1.00984
435,1072,3.30466,-0.0056462,0.366249,1.00943
442,1065,3.30437,-0.00565744,0.366251,1.00944
449,1058,3.30438,-0.00666886,0.366294,1.00879
456,1051,3.30387,-0.00673002,0.366255,1.00867
463,1044,3.30539,-0.00457273,0.365268,1.00803
470,1037,3.30519,-0.00500061,0.365297,1.00782
477,1030,3.305,-0.00564618,0.365279,1.00729
484,1023,3.30461,-0.00620242,0.365721,1.00674
491,1016,3.30468,-0.00664143,0.365312,1.00666
498,1009,3.30566,-0.00448594,0.364784,1.00593
505,1002,3.30565,-0.00501059,0.364859,1.00555
512,995,3.30526,-0.00556631,0.364798,1.00518
519,988,3.30512,-0.00604279,0.364799,1.00484
526,981,3.30457,-0.00677712,0.365261,1.0042
533,974,3.30642,-0.00449024,0.363833,1.00383
540,967,3.30573,-0.00506688,0.364282,1.00327
547,960,3.30558,-0.00566215,0.364276,1.00282
554,953,3.30558,-0.00619684,0.364274,1.00242
561,946,3.30528,-0.00675693,0.364278,1.00204
568,939,3.30635,-0.00462745,0.363761,1.00129
575,932,3.30633,-0.00522695,0.363774,1.00088
582,925,3.30619,-0.00563081,0.363308,1.00068
589,918,3.30552,-0.00620394,0.363824,1.00015
596,911,3.30522,-0.00672519,0.363758,0.999773
603,904,3.30687,-0.00506854,0.362889,0.998822
610,897,3.30646,-0.00555917,0.3628,0.998477
617,890,3.30597,-0.00617982,0.363237,0.997871
624,883,3.30563,-0.00674979,0.363244,0.997442
631,876,3.30689,-0.00456776,0.362276,0.996887
638,869,3.30666,-0.00509742,0.363106,0.996499
645,862,3.30607,-0.00629944,0.362733,0.995484
652,855,3.30575,-0.00677116,0.362603,0.995168
659,848,3.30717,-0.00455771,0.36176,0.994587
666,841,3.30665,-0.00572635,0.362217,0.993612
673,834,3.30617,-0.00628578,0.36222,0.993204
680,827,3.30583,-0.00678694,0.362254,0.992762
687,820,3.30693,-0.00517718,0.361707,0.991722
694,813,3.30678,-0.0062726,0.361704,0.990889
701,806,3.30573,-0.00689485,0.362129,0.990258
708,799,3.30719,-0.00509759,0.361199,0.989471
715,792,3.30651,-0.00628439,0.361657,0.988477
722,785,3.30607,-0.0068058,0.361641,0.98807
729,778,3.30698,-0.00511082,0.361142,0.986994
736,771,3.3066,-0.00621854,0.361151,0.986201
743,764,3.30757,-0.00409034,0.361469,0.985413
750,757,3.30718,-0.00513734,0.360636,0.984642
757,750,3.30632,-0.00621081,0.361094,0.983753
764,743,3.30729,-0.00465257,0.36059,0.982547
771,736,3.30674,-0.00527409,0.360556,0.982007
778,729,3.30615,-0.0105772,0.360457,0.981059
785,722,3.30724,-0.00751514,0.359631,0.979791
792,715,3.30674,-0.00859589,0.35961,0.978967
799,708,3.30789,-0.00456526,0.35821,0.977252
806,701,3.30728,-0.00522453,0.358198,0.976739
813,694,3.30673,-0.00496243,0.358191,0.975628
820,687,3.30755,-0.00752476,0.357237,0.974384
827,680,3.30709,-0.00854182,0.357226,0.973623
834,673,3.30634,-0.00822754,0.357218,0.972517
841,666,3.30736,-0.00522054,0.356403,0.971193
848,659,3.30665,-0.0054979,0.356264,0.969708
855,652,3.30732,-0.0094822,0.355762,0.968869
862,645,3.30694,-0.00912235,0.355317,0.967714
869,638,3.30808,-0.00508983,0.353908,0.965922
876,631,3.30753,-0.00571918,0.353891,0.965442
883,624,3.30836,-0.00319855,0.352951,0.963776
890,617,3.30756,-0.0085521,0.35295,0.962731
897,610,3.30837,-0.00693368,0.352425,0.961514
904,603,3.30809,-0.00657165,0.351974,0.960602
911,596,3.30695,-0.00693984,0.352334,0.958901
918,589,3.30761,-0.00530278,0.351916,0.957725
925,582,3.30703,-0.0106896,0.35144,0.956734
932,575,3.30817,-0.0066475,0.350075,0.955009
939,568,3.30691,-0.00842868,0.350974,0.953486
946,561,3.30837,-0.00377063,0.349112,0.952219
953,554,3.30703,-0.0112419,0.349572,0.95086
960,547,3.30784,-0.00955311,0.349064,0.94975
967,540,3.3072,-0.00838174,0.348614,0.94808
974,533,3.30811,-0.00576753,0.347663,0.946685
981,526,3.30884,-0.0026909,0.346719,0.945114
988,519,3.3072,-0.0102354,0.347627,0.943618
995,512,3.30866,-0.00612425,0.345788,0.941987
1002,505,3.30736,-0.00636832,0.346228,0.940356
1009,498,3.30811,-0.00527751,0.345738,0.938821
1016,491,3.30695,-0.0113151,0.345743,0.93733
1023,484,3.3078,-0.00722609,0.344385,0.935531
1030,477,3.3085,-0.00609765,0.343866,0.934015
1037,470,3.30751,-0.00494185,0.343861,0.932207
1044,463,3.30796,-0.00810228,0.342925,0.930583
1051,456,3.30857,-0.00698439,0.342438,0.929049
1058,449,3.30746,-0.00590069,0.342428,0.92716
1065,442,3.3085,-0.00320359,0.341037,0.925647
1072,435,3.30678,-0.0108101,0.34193,0.924146
1079,428,3.30798,-0.00678524,0.34056,0.922313
1086,421,3.30817,-0.00477975,0.340073,0.920063
1093,414,3.30688,-0.0108018,0.340112,0.918621
1100,407,3.30768,-0.0081327,0.339193,0.916929
1107,400,3.30778,-0.00569302,0.338615,0.91497
1114,393,3.30713,-0.00503193,0.338196,0.912976
1121,386,3.30729,-0.00972016,0.337677,0.911414
1128,379,3.30764,-0.00768484,0.337189,0.909186
1135,372,3.30838,-0.0027498,0.335857,0.906683
1142,365,3.30694,-0.004479,0.336286,0.905333
1149,358,3.30706,-0.00833966,0.335835,0.90317
1156,351,3.30741,-0.00471867,0.334901,0.900828
1163,344,3.30801,-0.00266379,0.333977,0.897337
1170,337,3.30626,-0.00950921,0.334424,0.89666
1177,330,3.30651,-0.00744249,0.333954,0.894471
1184,323,3.307,-0.00387676,0.333117,0.892076
1191,316,3.30713,-0.00861814,0.332565,0.890631
1198,309,3.30574,-0.00805962,0.33256,0.888371
1205,302,3.30588,-0.0109944,0.331689,0.885651
1212,295,3.30608,-0.00891851,0.331182,0.883435
1219,288,3.30636,-0.00691597,0.330748,0.881155
1226,281,3.30696,-0.00332329,0.329377,0.87895
1233,274,3.30491,-0.0117083,0.330234,0.877009
1240,267,3.30509,-0.00907007,0.32976,0.875163
1247,260,3.30546,-0.00605629,0.328856,0.872374
1254,253,3.30532,-0.00991703,0.328391,0.870237
1261,246,3.3055,-0.00792191,0.327931,0.867937
1268,239,3.30391,-0.00733288,0.327924,0.865684
1275,232,3.30372,-0.0118472,0.3283,0.863176
1282,225,3.30384,-0.00977655,0.32702,0.860898
1289,218,3.30386,-0.00767425,0.326567,0.858687
1296,211,3.30453,-0.00390219,0.325212,0.856466
1303,204,3.30404,-0.00944483,0.32521,0.854469
1310,197,3.30399,-0.00644077,0.324758,0.851493
1317,190,3.30286,-0.00578369,0.324267,0.849377
1324,183,3.30253,-0.0114348,0.324307,0.847341
1331,176,3.30234,-0.00682303,0.323406,0.844189
1338,169,3.30284,-0.0046112,0.322507,0.842137
1345,162,3.30205,-0.00939141,0.322524,0.839371
1352,155,3.30274,-0.00549857,0.32117,0.837165
1359,148,3.30269,-0.00338158,0.320728,0.834916
1366,141,3.30265,-0.00808299,0.320196,0.832325
1373,134,3.30258,-0.00432067,0.319404,0.829939
1380,127,3.30037,-0.00593331,0.320317,0.827341
1387,120,3.30011,-0.0100078,0.319884,0.825179
1394,113,3.30079,-0.00682286,0.318532,0.822486
1401,106,3.30025,-0.0110082,0.318087,0.820225
1408,99,3.30033,-0.00883944,0.317658,0.818009
1415,92,3.30033,-0.00666559,0.317233,0.815787
1422,85,3.30011,-0.00983003,0.316344,0.812989
1429,78,3.30012,-0.00605315,0.315463,0.810552
1436,71,3.29864,-0.00693145,0.315455,0.808656
1443,64,3.2983,-0.0117974,0.315034,0.806041
1450,57,3.2982,-0.00792914,0.314156,0.803647
1457,50,3.29841,-0.00470958,0.31328,0.800825
1464,43,3.29832,-0.00890802,0.3124,0.798735
1471,36,3.29823,-0.00502164,0.311537,0.796365
1478,29,3.29786,-0.00988807,0.311123,0.793782
1485,22,3.29596,-0.0102095,0.311108,0.792212
1492,15,3.29604,-0.00696757,0.310235,0.789379
1499,8,3.29593,-0.0111889,0.309373,0.787319
1504,3,3.29597,-0.00832596,0.30896,0.785503