File: hust_correlation_analysis/matrices/HUST_10-6_cycle_feature_matrix.csv
cycle_number,rul,voltage,current,capacity,charge_capacity
1,2287,3.32202,-0.00701957,0.282302,1.0664
12,2276,3.30865,-0.0112554,0.28796,1.0585
23,2265,3.30983,-0.0106853,0.28673,1.05667
34,2254,3.311,-0.00911365,0.28547,1.05559
45,2243,3.30976,-0.0109639,0.286197,1.05406
56,2232,3.31125,-0.0092094,0.284958,1.05316
67,2221,3.31095,-0.0103384,0.28496,1.05248
78,2210,3.31205,-0.0092393,0.284102,1.05104
89,2199,3.31183,-0.00982339,0.284101,1.05071
100,2188,3.31139,-0.0108812,0.284107,1.05035
111,2177,3.31225,-0.00928093,0.283243,1.04893
122,2166,3.31194,-0.00981288,0.283521,1.04859
133,2155,3.3117,-0.0109237,0.283244,1.04795
144,2144,3.31263,-0.00917484,0.282386,1.0469
155,2133,3.31242,-0.00978971,0.282389,1.04652
166,2122,3.312,-0.0109521,0.282961,1.04567
177,2111,3.31168,-0.0115311,0.282751,1.04529
188,2100,3.31246,-0.00932563,0.281888,1.04448
199,2089,3.31271,-0.00983989,0.281519,1.04434
210,2078,3.31242,-0.0103425,0.281518,1.04406
221,2067,3.31174,-0.0104984,0.281859,1.04368
232,2056,3.31159,-0.0111886,0.281848,1.04321
243,2045,3.31122,-0.0117036,0.282039,1.04288
254,2034,3.31317,-0.0099418,0.28026,1.0409
265,2023,3.31262,-0.00989028,0.280252,1.04226
276,2012,3.31272,-0.0110769,0.280271,1.04163
287,2001,3.31246,-0.0117383,0.280254,1.04117
298,1990,3.31407,-0.00936109,0.27904,1.04071
309,1979,3.31393,-0.00990829,0.279286,1.04034
320,1968,3.31377,-0.0109826,0.279323,1.03974
331,1957,3.31317,-0.0110895,0.279036,1.03966
342,1946,3.31465,-0.00937332,0.27818,1.03859
353,1935,3.3147,-0.00983268,0.27801,1.03849
364,1924,3.31393,-0.0104899,0.278186,1.03795
375,1913,3.31417,-0.0110188,0.277817,1.03779
386,1902,3.31417,-0.011508,0.278081,1.03753
397,1891,3.31565,-0.00918347,0.276853,1.03698
408,1880,3.31452,-0.0105237,0.277333,1.03582
419,1869,3.31514,-0.0104227,0.27659,1.0362
430,1858,3.31489,-0.010996,0.276583,1.03583
441,1847,3.31415,-0.0116503,0.276944,1.03525
452,1836,3.3157,-0.00939043,0.275718,1.03466
463,1825,3.31553,-0.0105459,0.275518,1.03395
474,1814,3.31544,-0.0110629,0.275726,1.03369
485,1803,3.31512,-0.0115719,0.275715,1.03334
496,1792,3.31608,-0.00940773,0.274491,1.03267
507,1781,3.3162,-0.00989893,0.274489,1.03239
518,1770,3.31607,-0.0110349,0.274861,1.03155
529,1759,3.31545,-0.0116707,0.274863,1.03118
540,1748,3.31725,-0.00929561,0.273633,1.03064
551,1737,3.3168,-0.0099162,0.273634,1.03027
562,1726,3.31662,-0.0110578,0.273633,1.02957
573,1715,3.31624,-0.0115793,0.273632,1.02924
584,1704,3.31781,-0.00929518,0.272394,1.02862
595,1693,3.31761,-0.00991791,0.272397,1.02826
606,1682,3.31736,-0.0105177,0.272393,1.02813
617,1671,3.31658,-0.011768,0.272758,1.02696
628,1660,3.31872,-0.00923419,0.271169,1.02669
639,1649,3.31781,-0.00989032,0.271781,1.02613
650,1638,3.31791,-0.0110074,0.271534,1.02545
661,1627,3.31675,-0.0112009,0.271877,1.02509
672,1616,3.31889,-0.00933396,0.270295,1.02445
683,1605,3.31792,-0.0100334,0.270653,1.02383
694,1594,3.31849,-0.0110226,0.270299,1.02342
705,1583,3.31738,-0.0117554,0.270656,1.02277
716,1572,3.31928,-0.0093611,0.269502,1.0222
727,1561,3.31826,-0.0106551,0.269781,1.02127
738,1550,3.31865,-0.0110829,0.269425,1.02118
749,1539,3.3198,-0.00943371,0.268561,1.02004
760,1528,3.31895,-0.0100361,0.268923,1.01952
771,1517,3.31912,-0.0111335,0.268925,1.01884
782,1506,3.31804,-0.0120192,0.26937,1.01814
793,1495,3.31985,-0.00997148,0.268047,1.01733
804,1484,3.31949,-0.0105408,0.268052,1.01701
815,1473,3.3187,-0.0112345,0.268033,1.01651
826,1462,3.32004,-0.00947976,0.267173,1.01543
837,1451,3.31945,-0.010085,0.267353,1.01505
848,1440,3.31953,-0.0111433,0.267172,1.01297
859,1429,3.31899,-0.0118278,0.267167,1.01397
870,1418,3.3199,-0.0100632,0.2663,1.01288
881,1407,3.31937,-0.0106903,0.266659,1.01231
892,1396,3.31875,-0.0118877,0.267015,1.01167
903,1385,3.32057,-0.00949813,0.26543,1.01104
914,1374,3.3202,-0.0106851,0.265795,1.01017
925,1363,3.31947,-0.0113846,0.265784,1.00971
936,1352,3.32115,-0.00951083,0.264563,1.00885
947,1341,3.3201,-0.0101538,0.264912,1.00825
958,1330,3.31924,-0.0115064,0.26527,1.00724
969,1319,3.32024,-0.00971107,0.264389,1.00611
980,1308,3.32047,-0.0102184,0.26403,1.00597
991,1297,3.31938,-0.011477,0.264753,1.00488
1002,1286,3.31963,-0.0120407,0.264389,1.00468
1013,1275,3.32054,-0.0102478,0.263522,1.0036
1024,1264,3.31975,-0.0115045,0.264062,1.00265
1035,1253,3.32081,-0.00965507,0.263282,1.00156
1046,1242,3.3206,-0.0102496,0.263002,1.00119
1057,1231,3.31971,-0.0120145,0.263548,0.999961
1068,1220,3.32102,-0.00967772,0.262125,0.999317
1079,1209,3.32025,-0.0109485,0.26249,0.998393
1090,1198,3.31986,-0.0120895,0.262852,0.997531
1101,1187,3.32111,-0.0102413,0.261695,0.996607
1112,1176,3.32015,-0.011618,0.262016,0.995613
1123,1165,3.32124,-0.00965596,0.261094,0.994555
1134,1154,3.32043,-0.0104214,0.261087,0.994047
1145,1143,3.31981,-0.0116869,0.261382,0.993132
1156,1132,3.32033,-0.0104394,0.260942,0.991505
1167,1121,3.32029,-0.0110448,0.260561,0.991234
1178,1110,3.32055,-0.00989407,0.260058,0.98957
1189,1099,3.32016,-0.0110853,0.260045,0.988817
1200,1088,3.31898,-0.0123777,0.260416,0.987889
1211,1077,3.31946,-0.0106225,0.259655,0.986527
1222,1066,3.31922,-0.0117649,0.259904,0.985881
1233,1055,3.31977,-0.0106231,0.259391,0.984171
1244,1044,3.31886,-0.011869,0.259763,0.983268
1255,1033,3.31987,-0.0105039,0.258887,0.981861
1266,1022,3.31894,-0.0118523,0.259254,0.980888
1277,1011,3.31912,-0.0106577,0.25875,0.979214
1288,1000,3.31856,-0.0118382,0.258739,0.978471
1299,989,3.31983,-0.010571,0.257862,0.977008
1310,978,3.31857,-0.0119365,0.258209,0.975947
1321,967,3.31824,-0.0107846,0.258077,0.974081
1332,956,3.31679,-0.0127475,0.258811,0.972531
1343,945,3.31836,-0.010802,0.257553,0.971606
1354,934,3.31868,-0.0102387,0.257047,0.969538
1365,923,3.31684,-0.0122502,0.257797,0.968019
1376,912,3.31722,-0.010981,0.257283,0.966317
1387,901,3.3167,-0.0121995,0.257272,0.965565
1398,890,3.31699,-0.00942525,0.256374,0.963623
1409,879,3.31786,-0.0129442,0.255115,0.962013
1420,868,3.31581,-0.0140477,0.255871,0.959777
1431,857,3.31661,-0.0111188,0.254599,0.958111
1442,846,3.31638,-0.0138078,0.253709,0.955544
1453,835,3.31536,-0.014679,0.25371,0.953774
1464,824,3.31631,-0.0101104,0.252065,0.951933
1475,813,3.31548,-0.0160744,0.251907,0.949643
1486,802,3.31461,-0.016459,0.251908,0.948152
1497,791,3.31505,-0.0120407,0.250623,0.945994
1508,780,3.31549,-0.0168337,0.249742,0.943567
1519,769,3.31646,-0.0144525,0.248465,0.941538
1530,758,3.31643,-0.0105534,0.247579,0.938993
1541,747,3.3143,-0.0181619,0.247949,0.936999
1552,736,3.31483,-0.0176425,0.24744,0.934952
1563,725,3.31511,-0.0135872,0.246155,0.932557
1574,714,3.31512,-0.0113134,0.245251,0.930285
1585,703,3.3152,-0.016408,0.24473,0.927547
1596,692,3.31599,-0.0123052,0.243079,0.925345
1607,681,3.31335,-0.0135413,0.243818,0.923036
1618,670,3.31372,-0.016833,0.242537,0.920329
1629,659,3.31383,-0.0163283,0.242009,0.918213
1640,648,3.31407,-0.0121364,0.240732,0.915888
1651,637,3.3139,-0.0173108,0.240102,0.913285
1662,626,3.31396,-0.0157581,0.239296,0.91047
1673,615,3.31393,-0.0116195,0.238012,0.908088
1684,604,3.3148,-0.0149164,0.236366,0.905576
1695,593,3.3147,-0.0143586,0.23583,0.903495
1706,582,3.31454,-0.0127428,0.235293,0.900692
1717,571,3.31463,-0.0161936,0.234016,0.897974
1728,560,3.31428,-0.0139206,0.233471,0.895503
1739,549,3.3124,-0.0139054,0.233468,0.892964
1750,538,3.31242,-0.0191831,0.232555,0.890388
1761,527,3.31248,-0.0167995,0.231635,0.888108
1772,516,3.31291,-0.0132156,0.230356,0.885416
1783,505,3.31245,-0.018659,0.229805,0.882576
1794,494,3.31346,-0.0168317,0.228681,0.880257
1805,483,3.31351,-0.0125424,0.227237,0.877841
1816,472,3.31293,-0.0180429,0.226691,0.875041
1827,461,3.3133,-0.0162007,0.225776,0.872511
1838,450,3.31354,-0.0119209,0.224484,0.870094
1849,439,3.31275,-0.0181041,0.223935,0.866972
1860,428,3.31268,-0.0164712,0.223013,0.86432
1871,417,3.31316,-0.0139605,0.221812,0.862056
1882,406,3.31397,-0.0113317,0.220793,0.859827
1893,395,3.31325,-0.0168911,0.220227,0.857261
1904,384,3.31278,-0.0134064,0.2193,0.854243
1915,373,3.31322,-0.011625,0.218376,0.851653
1926,362,3.31134,-0.0127587,0.218736,0.849631
1937,351,3.31417,-0.0144697,0.216156,0.847104
1948,340,3.31129,-0.014509,0.216514,0.844353
1959,329,3.31106,-0.0129441,0.215941,0.841447
1970,318,3.31139,-0.0194966,0.215013,0.839685
1981,307,3.31122,-0.0158122,0.214075,0.836729
1992,296,3.31157,-0.0120658,0.212778,0.833944
2003,285,3.31158,-0.0170794,0.211846,0.83171
2014,274,3.31166,-0.0171759,0.211272,0.82927
2025,263,3.31203,-0.0189438,0.209739,0.826409
2036,252,3.31186,-0.0183168,0.209028,0.82431
2047,241,3.31156,-0.0146985,0.208086,0.821265
2058,230,3.31276,-0.0107662,0.206437,0.81878
2069,219,3.31246,-0.0177581,0.205847,0.816698
2080,208,3.31235,-0.0139314,0.204908,0.813771
2091,197,3.31284,-0.010026,0.203607,0.811044
2102,186,3.31279,-0.0158453,0.202657,0.808429
2113,175,3.31295,-0.0112936,0.20136,0.806013
2124,164,3.31093,-0.0132156,0.201646,0.803622
2135,153,3.31013,-0.0204818,0.20147,0.801336
2146,142,3.31099,-0.0152931,0.199816,0.798104
2157,131,3.31095,-0.0126244,0.198861,0.795835
2168,120,3.31094,-0.0186242,0.197914,0.793238
2179,109,3.31126,-0.015857,0.196962,0.791049
2190,98,3.3116,-0.0118554,0.195649,0.788271
2201,87,3.3113,-0.0199149,0.195045,0.785852
2212,76,3.31172,-0.0151432,0.19373,0.783422
2223,65,3.31177,-0.0132141,0.192771,0.780807
2234,54,3.31145,-0.019302,0.192447,0.778076
2245,43,3.3117,-0.0165961,0.191203,0.775808
2256,32,3.31212,-0.0125771,0.189887,0.773007
2267,21,3.31202,-0.0186593,0.189035,0.770493
2278,10,3.30977,-0.0198664,0.18927,0.768457
2285,3,3.31079,-0.018277,0.188303,0.766959