File: hust_correlation_analysis/matrices/HUST_2-5_cycle_feature_matrix.csv
cycle_number,rul,voltage,current,capacity,charge_capacity
1,1388,3.32694,0.034079,0.268583,1.01994
8,1381,3.30901,-0.0215528,0.289498,0.989329
15,1374,3.31376,-0.0183712,0.286029,0.997972
22,1367,3.31663,-0.0174512,0.283934,1.00222
29,1360,3.31743,-0.0179593,0.282753,1.00528
36,1353,3.31892,-0.0177259,0.281022,1.00489
43,1346,3.31939,-0.0170582,0.280173,1.00697
50,1339,3.3201,-0.0169269,0.279324,1.00743
57,1332,3.31971,-0.0189645,0.279313,1.00765
64,1325,3.31916,-0.0189687,0.279312,1.00638
71,1318,3.3215,-0.0172156,0.277516,1.00682
78,1311,3.32114,-0.0186162,0.277794,1.00612
85,1304,3.32097,-0.0181998,0.277207,1.00533
92,1297,3.3209,-0.01881,0.277102,1.00498
99,1290,3.32204,-0.0179659,0.27665,1.00432
106,1283,3.32188,-0.017544,0.276157,1.00353
113,1276,3.3211,-0.0188954,0.276565,1.00114
120,1269,3.32164,-0.018138,0.276427,1.00167
127,1262,3.32139,-0.0187602,0.276424,1.00135
134,1255,3.3209,-0.0184517,0.276724,1.00031
141,1248,3.32212,-0.0165232,0.275478,0.999121
148,1241,3.3217,-0.0171203,0.275466,0.998783
155,1234,3.32113,-0.0177739,0.275887,0.99678
162,1227,3.32029,-0.0193512,0.276749,0.997115
169,1220,3.32197,-0.0166134,0.275371,0.996558
176,1213,3.32116,-0.0180405,0.276209,0.995408
183,1206,3.32044,-0.0187442,0.276635,0.99485
190,1199,3.32154,-0.0161157,0.27564,0.994038
197,1192,3.32042,-0.0175817,0.276517,0.992846
204,1185,3.32011,-0.0181976,0.276517,0.992547
211,1178,3.3194,-0.0189353,0.276939,0.991962
218,1171,3.32079,-0.0169591,0.275972,0.990762
225,1164,3.32039,-0.0176317,0.275972,0.990424
232,1157,3.31957,-0.0182573,0.276391,0.989882
239,1150,3.31895,-0.0197408,0.276822,0.988945
246,1143,3.32024,-0.0170325,0.276065,0.988127
253,1136,3.31979,-0.0175562,0.275818,0.98776
260,1129,3.31887,-0.0201358,0.276661,0.987106
267,1122,3.31739,-0.0200386,0.277074,0.986984
274,1115,3.31752,-0.0213859,0.277073,0.986367
281,1108,3.31899,-0.0188018,0.276102,0.985459
288,1101,3.31776,-0.0202579,0.276967,0.984306
295,1094,3.31802,-0.0215336,0.27655,0.98397
302,1087,3.3194,-0.0188417,0.275571,0.983088
309,1080,3.31851,-0.0195718,0.275999,0.982504
316,1073,3.31787,-0.0210002,0.276442,0.981623
323,1066,3.31727,-0.0217138,0.276451,0.981324
330,1059,3.31851,-0.0190227,0.27547,0.980429
337,1052,3.31787,-0.0203988,0.275893,0.979487
344,1045,3.31748,-0.0210995,0.275912,0.979214
351,1038,3.31929,-0.0190884,0.274945,0.977987
358,1031,3.31787,-0.0199017,0.276095,0.976973
365,1024,3.31738,-0.020481,0.276082,0.976879
372,1017,3.31657,-0.0201874,0.275819,0.97583
379,1010,3.31793,-0.0174676,0.27485,0.974973
386,1003,3.31764,-0.020008,0.27528,0.974759
393,996,3.31716,-0.0214277,0.275717,0.973844
400,989,3.31601,-0.0204742,0.276184,0.972906
407,982,3.31713,-0.0184268,0.275217,0.971737
414,975,3.31624,-0.0191474,0.275656,0.971152
421,968,3.31616,-0.0198272,0.275638,0.970791
428,961,3.31769,-0.0176762,0.275301,0.969724
435,954,3.3165,-0.019387,0.27558,0.968462
442,947,3.31561,-0.0199319,0.275569,0.968162
449,940,3.31533,-0.0206453,0.275549,0.967779
456,933,3.31598,-0.0186512,0.2755,0.966185
463,926,3.31557,-0.0194841,0.275719,0.96584
470,919,3.31455,-0.0208308,0.275947,0.964934
477,912,3.31648,-0.0180101,0.274514,0.964288
484,905,3.31515,-0.019518,0.27543,0.963192
491,898,3.31437,-0.0209355,0.27587,0.96227
498,891,3.31606,-0.0180146,0.274421,0.961629
505,884,3.31498,-0.0188722,0.274866,0.960968
512,877,3.31387,-0.020304,0.275328,0.960096
519,870,3.31612,-0.0175026,0.27389,0.959436
526,863,3.31492,-0.018882,0.274326,0.958525
533,856,3.31322,-0.0204806,0.275229,0.957292
540,849,3.31557,-0.0183068,0.273811,0.956415
547,842,3.31427,-0.0190369,0.274273,0.955863
554,835,3.31321,-0.0204931,0.274721,0.95473
561,828,3.31491,-0.0184419,0.273735,0.953685
568,821,3.31362,-0.0198245,0.274208,0.952872
575,814,3.31254,-0.0215859,0.275134,0.951636
582,807,3.31403,-0.0186823,0.273667,0.950932
589,800,3.31297,-0.0207419,0.274113,0.949709
596,793,3.31396,-0.0186724,0.273609,0.948286
603,786,3.31283,-0.0202979,0.274089,0.947368
610,779,3.31217,-0.0208592,0.274064,0.947044
617,772,3.31274,-0.01891,0.273624,0.94548
624,765,3.31243,-0.0210798,0.274231,0.944324
631,758,3.31291,-0.0189274,0.273521,0.942917
638,751,3.31188,-0.0205541,0.27399,0.94195
645,744,3.31035,-0.0220681,0.27446,0.941019
652,737,3.31225,-0.0199499,0.27347,0.939785
659,730,3.31081,-0.021379,0.27396,0.938941
666,723,3.31214,-0.0192577,0.272972,0.937701
673,716,3.31069,-0.0207727,0.273446,0.936793
680,709,3.31224,-0.0167164,0.271967,0.935372
687,702,3.31065,-0.0266239,0.273068,0.934169
694,695,3.30959,-0.02824,0.272916,0.933305
701,688,3.31111,-0.0220933,0.270956,0.93171
708,681,3.30957,-0.0224914,0.271417,0.930032
715,674,3.3111,-0.0239081,0.26947,0.928619
722,667,3.30924,-0.0275134,0.270419,0.927819
729,660,3.31081,-0.0201954,0.268462,0.925563
736,653,3.30906,-0.0218206,0.268926,0.924586
743,646,3.31052,-0.0260404,0.267396,0.922939
750,639,3.30929,-0.0256617,0.267453,0.921911
757,632,3.31064,-0.0242252,0.266454,0.920362
764,625,3.30944,-0.0238708,0.266445,0.919263
771,618,3.31017,-0.0224866,0.265916,0.917426
778,611,3.30954,-0.0208464,0.265454,0.915944
785,604,3.31002,-0.0187115,0.264922,0.914424
792,597,3.31107,-0.022919,0.263433,0.912801
799,590,3.30928,-0.0214022,0.263425,0.910963
806,583,3.31123,-0.0227491,0.260978,0.90975
813,576,3.30872,-0.0272756,0.262384,0.908346
820,569,3.30986,-0.0258891,0.261388,0.906798
827,562,3.30876,-0.0241482,0.261178,0.905283
834,555,3.30914,-0.0227918,0.260548,0.903402
841,548,3.31042,-0.0230951,0.258391,0.901215
848,541,3.30872,-0.0196947,0.25935,0.900081
855,534,3.31023,-0.0180024,0.256722,0.897697
862,527,3.3083,-0.0203551,0.257372,0.89647
869,520,3.30901,-0.0267984,0.256338,0.894933
876,513,3.31014,-0.0234065,0.255312,0.892904
883,506,3.3085,-0.0237443,0.255309,0.891536
890,499,3.30917,-0.0261748,0.253797,0.889388
897,492,3.3078,-0.0266247,0.253792,0.887966
904,485,3.30795,-0.0280401,0.253718,0.886043
911,478,3.3095,-0.0181777,0.25129,0.882281
918,471,3.30752,-0.0206784,0.251737,0.882356
925,464,3.3078,-0.0200354,0.251163,0.88016
932,457,3.30948,-0.0203961,0.248748,0.878208
939,450,3.30768,-0.021627,0.249237,0.876315
946,443,3.30771,-0.0225081,0.249117,0.874501
953,436,3.30888,-0.0245837,0.247137,0.872785
960,429,3.30688,-0.026053,0.247597,0.870729
967,422,3.30739,-0.0223632,0.246573,0.868814
974,415,3.30779,-0.0195571,0.245531,0.866514
981,408,3.30913,-0.0220688,0.24356,0.864655
988,401,3.30681,-0.0253963,0.244467,0.862845
995,394,3.30753,-0.0217417,0.242959,0.861114
1002,387,3.30833,-0.018781,0.24197,0.858857
1009,380,3.30554,-0.0306607,0.242839,0.857042
1016,373,3.30659,-0.0226913,0.240847,0.854708
1023,366,3.30694,-0.0198451,0.239791,0.852384
1030,359,3.3071,-0.0265943,0.238716,0.850838
1037,352,3.30561,-0.0265885,0.238727,0.848427
1044,345,3.30615,-0.0229714,0.237674,0.846429
1051,338,3.30719,-0.0262621,0.235685,0.844267
1058,331,3.30741,-0.0256158,0.235082,0.842109
1065,324,3.30553,-0.0246576,0.235084,0.840019
1072,317,3.30601,-0.0218586,0.234094,0.837736
1079,310,3.30618,-0.0202648,0.233418,0.835867
1086,303,3.30651,-0.0257796,0.231879,0.833889
1093,296,3.30507,-0.0250997,0.23187,0.831656
1100,289,3.30543,-0.0307924,0.230802,0.829407
1107,282,3.30619,-0.0256038,0.229277,0.826972
1114,275,3.30687,-0.0238859,0.228192,0.825424
1121,268,3.30725,-0.0210016,0.227109,0.823081
1128,261,3.30462,-0.0311257,0.227557,0.821368
1135,254,3.30517,-0.0281892,0.226475,0.818799
1142,247,3.30537,-0.025079,0.225384,0.816516
1149,240,3.30591,-0.022149,0.224311,0.814235
1156,233,3.30582,-0.0280617,0.223222,0.811951
1163,226,3.30451,-0.0271124,0.22277,0.810091
1170,219,3.30542,-0.0217824,0.221237,0.807658
1177,212,3.30526,-0.0300511,0.220598,0.805557
1184,205,3.3056,-0.0270451,0.219491,0.803199
1191,198,3.30333,-0.028397,0.219924,0.801197
1198,191,3.30449,-0.02196,0.217914,0.799332
1205,184,3.30491,-0.0290229,0.216838,0.796767
1212,177,3.3055,-0.0236415,0.215278,0.79426
1219,170,3.30593,-0.0204672,0.214159,0.791935
1226,163,3.30662,-0.0262951,0.212584,0.78996
1233,156,3.30427,-0.0276972,0.213018,0.787963
1240,149,3.30487,-0.0247059,0.211908,0.785617
1247,142,3.30529,-0.030828,0.21079,0.783339
1254,135,3.30636,-0.0251566,0.208776,0.781147
1261,128,3.30381,-0.026552,0.209207,0.779153
1268,121,3.30393,-0.0327637,0.208081,0.776843
1275,114,3.30503,-0.0320257,0.206961,0.775013
1282,107,3.30452,-0.0314385,0.206729,0.772595
1289,100,3.30459,-0.0282831,0.205592,0.770248
1296,93,3.30599,-0.0199657,0.20312,0.767907
1303,86,3.30351,-0.0309582,0.203555,0.765941
1310,79,3.30427,-0.0278364,0.202417,0.763612
1317,72,3.30521,-0.0222542,0.201417,0.761114
1324,65,3.30507,-0.0319443,0.200138,0.75873
1331,58,3.30535,-0.026206,0.198549,0.756222
1338,51,3.30244,-0.0327776,0.19988,0.754563
1345,44,3.30367,-0.0339507,0.197391,0.752272
1352,37,3.30437,-0.0306455,0.196238,0.749982
1359,30,3.30503,-0.027499,0.19508,0.74763
1366,23,3.3064,-0.0215296,0.193053,0.745459
1373,16,3.30316,-0.0353907,0.193911,0.743688
1380,9,3.30355,-0.0347271,0.193181,0.741524
1386,3,3.30469,-0.0302955,0.19158,0.739798