File: hust_correlation_analysis/matrices/HUST_4-6_cycle_feature_matrix.csv
cycle_number,rul,voltage,current,capacity,charge_capacity
1,1382,3.31781,-0.00832406,0.305808,1.0178
8,1375,3.30605,-0.0112801,0.310134,1.01162
15,1368,3.3079,-0.0103699,0.308903,1.01018
22,1361,3.3075,-0.0115435,0.30847,1.0097
29,1354,3.30911,-0.00963744,0.307241,1.00882
36,1347,3.30881,-0.0108683,0.307233,1.00809
43,1340,3.30831,-0.0116119,0.307226,1.00765
50,1333,3.31004,-0.00973349,0.305994,1.00672
57,1326,3.3096,-0.0102773,0.305988,1.0064
64,1319,3.30929,-0.0109544,0.305983,1.00599
71,1312,3.31095,-0.00910872,0.304762,1.00507
78,1305,3.31083,-0.00975497,0.304772,1.00474
85,1298,3.31018,-0.0109606,0.305197,1.00384
92,1291,3.30992,-0.0115719,0.305183,1.00347
99,1284,3.31138,-0.00907351,0.303973,1.00294
106,1277,3.31094,-0.00973505,0.303969,1.00254
113,1270,3.31069,-0.0104737,0.3044,1.00194
120,1263,3.3103,-0.0110777,0.304392,1.00158
127,1256,3.31159,-0.00923316,0.303609,1.00049
134,1249,3.31138,-0.00984984,0.303602,1.00012
141,1242,3.31138,-0.0104378,0.3036,0.999774
148,1235,3.311,-0.011084,0.303615,0.999445
155,1228,3.3106,-0.0115916,0.303605,0.999145
162,1221,3.31201,-0.00921087,0.30282,0.99834
169,1214,3.31194,-0.0098087,0.30282,0.998008
176,1207,3.31175,-0.010375,0.302817,0.997671
183,1200,3.31103,-0.0110605,0.303248,0.997092
190,1193,3.31099,-0.0116647,0.303253,0.996775
197,1186,3.31254,-0.00887974,0.302035,0.996348
204,1179,3.31213,-0.00923461,0.302299,0.996156
211,1172,3.31173,-0.00985503,0.302454,0.995603
218,1165,3.31162,-0.0104696,0.302454,0.995245
225,1158,3.3114,-0.0110763,0.30245,0.994904
232,1151,3.3106,-0.0117913,0.302881,0.994297
239,1144,3.31085,-0.0117283,0.302424,0.994704
246,1137,3.31232,-0.00914808,0.30163,0.993716
253,1130,3.31217,-0.00927182,0.301203,0.993831
260,1123,3.31158,-0.0100188,0.301641,0.993233
267,1116,3.31146,-0.0105918,0.301636,0.992887
274,1109,3.31095,-0.0118415,0.302069,0.992027
281,1102,3.31248,-0.00868444,0.300838,0.991795
288,1095,3.31229,-0.00935286,0.300839,0.991403
295,1088,3.3119,-0.0105701,0.30127,0.990542
302,1081,3.31151,-0.0106373,0.301276,0.990517
309,1074,3.31148,-0.0112436,0.301267,0.990129
316,1067,3.31293,-0.00867474,0.300034,0.988255
323,1060,3.31191,-0.0100212,0.300908,0.988468
330,1053,3.31191,-0.0106863,0.300906,0.988088
337,1046,3.31177,-0.0112656,0.300908,0.987749
344,1039,3.31074,-0.0119773,0.301349,0.987182
351,1032,3.31257,-0.00943498,0.300118,0.986598
358,1025,3.31236,-0.00995627,0.300111,0.98628
365,1018,3.3115,-0.0107143,0.300464,0.985694
372,1011,3.31142,-0.0111779,0.300549,0.985424
379,1004,3.31123,-0.0118848,0.300556,0.985033
386,997,3.31217,-0.00943417,0.299757,0.98421
393,990,3.31209,-0.0100032,0.299762,0.98389
400,983,3.31159,-0.0107392,0.300192,0.981774
407,976,3.31099,-0.0114111,0.300194,0.982899
414,969,3.31033,-0.0120201,0.300624,0.982362
421,962,3.312,-0.010126,0.299844,0.981517
428,955,3.31153,-0.0106959,0.299843,0.980952
435,948,3.31082,-0.0113955,0.300281,0.98036
442,941,3.31254,-0.00882005,0.299056,0.979787
449,934,3.3118,-0.00981178,0.299493,0.97906
456,927,3.31149,-0.0101747,0.299484,0.978827
463,920,3.31071,-0.0114404,0.299909,0.977898
470,913,3.31017,-0.0120818,0.299991,0.977534
477,906,3.31198,-0.0095063,0.298795,0.976943
484,899,3.31099,-0.010325,0.299118,0.976302
491,892,3.31099,-0.0108331,0.299189,0.975758
498,885,3.31019,-0.0121075,0.299559,0.975117
505,878,3.31175,-0.00956803,0.298316,0.974484
512,871,3.31157,-0.0101388,0.298318,0.97417
519,864,3.31011,-0.0116085,0.299204,0.972996
526,857,3.31188,-0.00898567,0.297969,0.972432
533,850,3.31113,-0.0102784,0.298397,0.971474
540,843,3.31069,-0.0109447,0.298399,0.971106
547,836,3.31018,-0.0122469,0.298857,0.970258
554,829,3.31128,-0.00960662,0.297606,0.969637
561,822,3.31088,-0.0110516,0.298055,0.968646
568,815,3.31027,-0.0115979,0.298059,0.968366
575,808,3.31125,-0.00973404,0.297714,0.967016
582,801,3.311,-0.010895,0.297712,0.96637
589,794,3.30993,-0.0120171,0.298161,0.965578
596,787,3.31106,-0.00946235,0.297631,0.964775
603,780,3.31025,-0.0108178,0.297828,0.963613
610,773,3.30993,-0.0120794,0.297824,0.963126
617,766,3.30964,-0.0110308,0.297242,0.962581
624,759,3.31055,-0.0105359,0.297634,0.96177
631,752,3.3097,-0.0118488,0.297472,0.960836
638,745,3.31131,-0.00916443,0.296292,0.960245
645,738,3.31015,-0.0105104,0.296677,0.959323
652,731,3.30991,-0.0114821,0.296678,0.958784
659,724,3.31084,-0.00925068,0.295869,0.957764
666,717,3.31058,-0.0105406,0.295872,0.957036
673,710,3.3101,-0.0102801,0.295739,0.955854
680,703,3.31091,-0.00979989,0.295525,0.954992
687,696,3.30985,-0.0112421,0.295973,0.954025
694,689,3.30919,-0.0107182,0.296449,0.952992
701,682,3.31052,-0.00901104,0.295045,0.951676
708,675,3.30987,-0.00991,0.295044,0.951186
715,668,3.31058,-0.00965734,0.294849,0.95022
722,661,3.3096,-0.011119,0.2953,0.949231
729,654,3.309,-0.0120874,0.295282,0.94865
736,647,3.31001,-0.0100221,0.294496,0.947546
743,640,3.30936,-0.0120935,0.29495,0.946215
750,633,3.30994,-0.0094646,0.294154,0.945382
757,626,3.30946,-0.0115134,0.29461,0.944074
764,619,3.30907,-0.0108733,0.29402,0.943298
771,612,3.30975,-0.0108319,0.293816,0.942182
778,605,3.30842,-0.0122116,0.294263,0.939887
785,598,3.30951,-0.0101716,0.29347,0.940056
792,591,3.30855,-0.0122921,0.293938,0.938727
799,584,3.30959,-0.0102915,0.293134,0.937765
806,577,3.30833,-0.011658,0.293588,0.936573
813,570,3.30984,-0.00887156,0.292196,0.934668
820,563,3.3085,-0.0117274,0.293266,0.934083
827,556,3.30918,-0.0103881,0.292467,0.932497
834,549,3.30847,-0.0125366,0.292926,0.931145
841,542,3.30926,-0.0102618,0.292137,0.930111
848,535,3.30779,-0.0125528,0.292613,0.928701
855,528,3.30916,-0.0111078,0.291804,0.92714
862,521,3.30769,-0.0125716,0.292283,0.926201
869,514,3.30809,-0.0112517,0.291957,0.924412
876,507,3.3091,-0.00985208,0.291169,0.922877
883,500,3.30774,-0.0119903,0.291752,0.921524
890,493,3.30804,-0.0106674,0.291309,0.919723
897,486,3.30657,-0.012791,0.291778,0.918397
904,479,3.30754,-0.0114345,0.291612,0.916816
911,472,3.30645,-0.0118138,0.290982,0.915358
918,465,3.30682,-0.017654,0.290182,0.913766
925,458,3.30773,-0.0143428,0.288917,0.912181
932,451,3.30669,-0.0136764,0.288922,0.910041
939,444,3.30761,-0.0103586,0.287641,0.908414
946,437,3.30753,-0.0163683,0.287317,0.906604
953,430,3.30624,-0.0173793,0.287327,0.90485
960,423,3.30773,-0.0121761,0.285561,0.903121
967,416,3.308358,-0.0162657,0.284289,0.901442
974,409,3.306871,-0.0165708,0.284278,0.900015
981,402,3.3076,-0.0141154,0.283492,0.897782
988,395,3.30883,-0.00926086,0.281744,0.895857
995,388,3.3064,-0.0190075,0.282677,0.894259
1002,381,3.30739,-0.0159032,0.281403,0.892292
1009,374,3.30775,-0.0134665,0.280614,0.890198
1016,367,3.30903,-0.00824696,0.278867,0.888459
1023,360,3.30705,-0.0165248,0.279339,0.886623
1030,353,3.30753,-0.0141064,0.278546,0.884325
1037,346,3.30845,-0.0109026,0.277263,0.882584
1044,339,3.30655,-0.0196484,0.277737,0.880533
1051,332,3.30774,-0.0144606,0.275991,0.878733
1058,325,3.30795,-0.0118784,0.275187,0.876489
1065,318,3.30878,-0.00874805,0.273927,0.874972
1072,311,3.3072,-0.0155849,0.273922,0.872587
1079,304,3.30835,-0.0103256,0.272175,0.870784
1086,297,3.30796,-0.0174525,0.271835,0.868504
1093,290,3.30886,-0.0142526,0.270563,0.866767
1100,283,3.30746,-0.0134216,0.27056,0.864685
1107,276,3.30796,-0.0182385,0.269281,0.862675
1114,269,3.3082,-0.0156846,0.268481,0.860426
1121,262,3.30895,-0.0105284,0.267219,0.858403
1128,255,3.307,-0.0199083,0.26768,0.856121
1135,248,3.30776,-0.0165165,0.266405,0.854417
1142,241,3.30789,-0.0138627,0.265596,0.852187
1149,234,3.30927,-0.0093285,0.263942,0.849988
1156,227,3.30902,-0.0162618,0.264132,0.847933
1163,220,3.30737,-0.0157986,0.263519,0.845644
1170,213,3.30755,-0.0128547,0.262711,0.843548
1177,206,3.30824,-0.0178391,0.261441,0.841536
1184,199,3.30886,-0.0132441,0.260171,0.839187
1191,192,3.30905,-0.0106466,0.259365,0.836902
1198,185,3.30675,-0.0203783,0.259821,0.834548
1205,178,3.30749,-0.0158037,0.258287,0.832088
1212,171,3.30837,-0.0129064,0.257292,0.830219
1219,164,3.30833,-0.0181336,0.256479,0.82797
1226,157,3.30853,-0.0154583,0.255667,0.825711
1233,150,3.30903,-0.0114706,0.254397,0.822995
1240,143,3.30924,-0.00883019,0.253593,0.820731
1247,136,3.30802,-0.016325,0.252854,0.818559
1254,129,3.30866,-0.0119755,0.251582,0.816006
1261,122,3.30867,-0.0176779,0.250764,0.81356
1268,115,3.30886,-0.0148349,0.249939,0.811352
1275,108,3.30871,-0.0144612,0.249878,0.809147
1282,101,3.30901,-0.0100559,0.248613,0.806611
1289,94,3.30923,-0.0176985,0.2478,0.80455
1296,87,3.30759,-0.0149674,0.247036,0.802167
1303,80,3.30835,-0.0109538,0.245745,0.799405
1310,73,3.30788,-0.0187805,0.245704,0.797182
1317,66,3.30811,-0.0167821,0.244893,0.794591
1324,59,3.30963,-0.0101739,0.242389,0.792039
1331,52,3.30893,-0.017604,0.242343,0.79001
1338,45,3.30938,-0.016339,0.241532,0.787073
1345,38,3.30971,-0.0118558,0.240264,0.784522
1352,31,3.30982,-0.019739,0.239563,0.782428
1359,24,3.31014,-0.0156757,0.238283,0.779648
1366,17,3.31052,-0.0136768,0.237341,0.777019
1373,10,3.31085,-0.0199007,0.236085,0.774652
1380,3,3.31144,-0.0165877,0.234818,0.771618