File: hust_correlation_analysis/matrices/HUST_2-2_cycle_feature_matrix.csv
cycle_number,rul,voltage,current,capacity,charge_capacity
1,2653,3.3312,-0.0122707,0.284108,1.04053
14,2640,3.31691,-0.0151876,0.289544,1.03072
27,2627,3.3169,-0.0152672,0.289004,1.02838
40,2614,3.31777,-0.0157016,0.288008,1.0272
53,2601,3.31872,-0.0145452,0.287033,1.02563
66,2588,3.31761,-0.0164602,0.287419,1.02436
79,2575,3.31864,-0.0153212,0.286469,1.02286
92,2562,3.3175,-0.0172141,0.286877,1.02167
105,2549,3.31868,-0.0160063,0.28594,1.02024
118,2536,3.31811,-0.0172324,0.286243,1.01959
131,2523,3.31909,-0.0153655,0.284976,1.01846
144,2510,3.31849,-0.0167,0.285381,1.01752
157,2497,3.31938,-0.0147387,0.284458,1.01651
170,2484,3.31899,-0.0154579,0.284449,1.01613
183,2471,3.31844,-0.0150953,0.284468,1.01512
196,2458,3.31941,-0.0131662,0.283507,1.01396
209,2445,3.3191,-0.0153895,0.28389,1.01381
222,2432,3.31829,-0.0168147,0.284341,1.01293
235,2419,3.31794,-0.0158096,0.283921,1.01242
248,2406,3.31956,-0.0148512,0.282906,1.01188
261,2393,3.31865,-0.0153874,0.283288,1.01123
274,2380,3.3183,-0.0162211,0.283303,1.01087
287,2367,3.31754,-0.0175968,0.283748,1.01005
300,2354,3.31912,-0.0149706,0.28234,1.00939
313,2341,3.31876,-0.016323,0.282785,1.00858
326,2328,3.31855,-0.0162671,0.282339,1.00877
339,2315,3.31803,-0.017625,0.282783,1.00795
352,2302,3.31905,-0.0151155,0.281811,1.00703
365,2289,3.31913,-0.0163053,0.281832,1.00654
378,2276,3.3182,-0.0171123,0.282238,1.00584
391,2263,3.31778,-0.017704,0.282267,1.00566
404,2250,3.31954,-0.0150625,0.28086,1.00502
417,2237,3.31905,-0.0164197,0.281317,1.00423
430,2224,3.31872,-0.0170806,0.281287,1.00381
443,2211,3.32057,-0.0127181,0.279513,1.00317
456,2198,3.31998,-0.0133308,0.2795,1.00282
469,2185,3.31958,-0.0146734,0.279942,1.00202
482,2172,3.31885,-0.0165236,0.280322,1.002
495,2159,3.31865,-0.0171389,0.280528,1.00173
508,2146,3.32002,-0.0152089,0.279439,1.00048
521,2133,3.3197,-0.0157504,0.279373,1.00032
534,2120,3.31929,-0.0162628,0.279347,0.999992
547,2107,3.31883,-0.0160263,0.279382,0.998964
560,2094,3.3182,-0.0179056,0.279768,0.998957
573,2081,3.32019,-0.0141289,0.27799,0.99801
586,2068,3.31926,-0.0166336,0.278812,0.9975
599,2055,3.31871,-0.0162406,0.278856,0.996578
612,2042,3.32038,-0.0134714,0.27745,0.996
625,2029,3.31972,-0.0146891,0.27789,0.995243
638,2016,3.31932,-0.0155889,0.277897,0.994828
651,2003,3.31898,-0.01624,0.277892,0.994498
664,1990,3.32014,-0.0136366,0.27691,0.993587
677,1977,3.32004,-0.014942,0.276908,0.992958
690,1964,3.3196,-0.0156198,0.277511,0.992596
703,1951,3.31864,-0.0164631,0.27733,0.991987
716,1938,3.31995,-0.0143479,0.276355,0.990874
729,1925,3.32021,-0.0149413,0.275936,0.990864
742,1912,3.31927,-0.0164058,0.276363,0.98993
755,1899,3.32042,-0.0136301,0.275981,0.98906
768,1886,3.32009,-0.0144342,0.275377,0.988707
781,1873,3.31979,-0.0151655,0.275679,0.988351
794,1860,3.31894,-0.0164807,0.276418,0.987271
807,1847,3.32073,-0.0138342,0.274381,0.986809
820,1834,3.32055,-0.014976,0.274375,0.986242
833,1821,3.31948,-0.0161083,0.274819,0.985506
846,1808,3.32131,-0.0137055,0.273392,0.984695
859,1795,3.32093,-0.0145212,0.273395,0.984308
872,1782,3.32021,-0.0158321,0.27445,0.983513
885,1769,3.31959,-0.0166327,0.273835,0.983121
898,1756,3.32106,-0.0144214,0.272857,0.982057
911,1743,3.32067,-0.0152445,0.272798,0.981641
924,1730,3.31987,-0.0166128,0.273282,0.98102
937,1717,3.32137,-0.0132679,0.271852,0.980388
950,1704,3.32098,-0.0146108,0.271865,0.979789
963,1691,3.32022,-0.0153483,0.272276,0.979152
976,1678,3.32007,-0.0166082,0.272295,0.978622
989,1665,3.32163,-0.0139301,0.270866,0.977924
1002,1652,3.32107,-0.0153179,0.271308,0.977074
1015,1639,3.32044,-0.0159951,0.27129,0.976696
1028,1626,3.32166,-0.013299,0.270302,0.975817
1041,1613,3.32136,-0.0146988,0.27032,0.975209
1054,1600,3.32058,-0.0163456,0.270773,0.97454
1067,1587,3.32005,-0.016849,0.270745,0.973944
1080,1574,3.32136,-0.0148034,0.269778,0.972848
1093,1561,3.32106,-0.0156367,0.269755,0.972355
1106,1548,3.32058,-0.0161784,0.269741,0.972068
1119,1535,3.322,-0.0141483,0.268744,0.970828
1132,1522,3.32098,-0.0149825,0.269178,0.970217
1145,1509,3.32075,-0.0162179,0.269176,0.969623
1158,1496,3.31997,-0.0170464,0.269607,0.969008
1171,1483,3.32177,-0.0148461,0.268196,0.968147
1184,1470,3.32068,-0.0155967,0.268618,0.967538
1197,1457,3.31988,-0.0170492,0.269056,0.966643
1210,1444,3.32157,-0.0143679,0.267638,0.965991
1223,1431,3.32079,-0.0156104,0.267727,0.965189
1236,1418,3.31999,-0.0171673,0.268504,0.964213
1249,1405,3.32176,-0.0150136,0.267093,0.96334
1262,1392,3.32085,-0.0157538,0.267512,0.962729
1275,1379,3.31993,-0.0173297,0.267963,0.961802
1288,1366,3.32157,-0.014454,0.266522,0.961176
1301,1353,3.32123,-0.0151443,0.26651,0.960803
1314,1340,3.32026,-0.0166745,0.26755,0.959807
1327,1327,3.32175,-0.0145571,0.265947,0.958672
1340,1314,3.32116,-0.0152261,0.265927,0.958286
1353,1301,3.32062,-0.0159226,0.265913,0.957708
1366,1288,3.31985,-0.0174085,0.266355,0.957005
1379,1275,3.32131,-0.0163308,0.265519,0.956472
1392,1262,3.32058,-0.0160242,0.265351,0.955459
1405,1249,3.31957,-0.019305,0.266214,0.954648
1418,1236,3.32066,-0.0161628,0.265251,0.953077
1431,1223,3.32012,-0.0168304,0.265232,0.952457
1444,1210,3.32135,-0.014734,0.264246,0.951293
1457,1197,3.320412,-0.01624152,0.264685,0.950359
1470,1184,3.31998,-0.0176007,0.264685,0.949748
1483,1171,3.32073,-0.0155509,0.264124,0.948281
1496,1158,3.32011,-0.0163015,0.264127,0.947945
1509,1145,3.31894,-0.0177461,0.264548,0.94697
1522,1132,3.32024,-0.0156771,0.263619,0.945689
1535,1119,3.31932,-0.0171638,0.264145,0.944776
1548,1106,3.32058,-0.014986,0.262966,0.943548
1561,1093,3.31961,-0.0165196,0.26344,0.942728
1574,1080,3.31884,-0.0179294,0.263423,0.942019
1587,1067,3.31956,-0.0157685,0.262863,0.940585
1600,1054,3.31842,-0.0173248,0.263309,0.939634
1613,1041,3.31935,-0.0151782,0.262279,0.938333
1626,1028,3.31793,-0.0175275,0.263188,0.936836
1639,1015,3.31945,-0.0152083,0.26173,0.935913
1652,1002,3.31788,-0.0175127,0.262638,0.934424
1665,989,3.31877,-0.0153659,0.261615,0.933152
1678,976,3.31733,-0.0176903,0.262532,0.931677
1691,963,3.31836,-0.0154439,0.261517,0.930468
1704,950,3.31659,-0.0178586,0.262434,0.928927
1717,937,3.31806,-0.0155386,0.26093,0.927872
1730,924,3.31618,-0.0179842,0.26184,0.926282
1743,911,3.31731,-0.016462,0.260825,0.924772
1756,898,3.31527,-0.0188556,0.26173,0.923159
1769,885,3.31654,-0.0152618,0.260248,0.92154
1782,872,3.31665,-0.0216842,0.259686,0.919713
1795,859,3.31494,-0.0229394,0.260154,0.917738
1808,846,3.31572,-0.0194722,0.259131,0.915836
1821,833,3.3166,-0.0158726,0.257615,0.914109
1834,820,3.31456,-0.0249751,0.258092,0.912196
1847,807,3.31511,-0.0216278,0.257049,0.910176
1860,794,3.31563,-0.0180646,0.256001,0.908216
1873,781,3.31424,-0.0185202,0.255992,0.906782
1886,768,3.31482,-0.0156811,0.255141,0.903047
1899,755,3.31476,-0.0230308,0.254381,0.90238
1912,742,3.31287,-0.0234982,0.254841,0.900705
1925,729,3.31368,-0.0186643,0.253342,0.898367
1938,716,3.31426,-0.0158406,0.252291,0.896082
1951,703,3.31458,-0.0224582,0.251236,0.894475
1964,690,3.3146,-0.0206211,0.25067,0.891615
1977,677,3.31265,-0.0189,0.250659,0.889879
1990,664,3.31326,-0.0169241,0.249635,0.887341
2003,651,3.31316,-0.0236192,0.249023,0.885436
2016,638,3.31343,-0.0208458,0.247966,0.883129
2029,625,3.31421,-0.014551,0.245983,0.880354
2042,612,3.31196,-0.0179599,0.246907,0.878443
2055,599,3.31203,-0.0233963,0.245848,0.876215
2068,586,3.31249,-0.0205308,0.244965,0.873905
2081,573,3.31282,-0.0176744,0.24373,0.871672
2094,560,3.31238,-0.0241917,0.243118,0.868743
2107,547,3.31272,-0.0213362,0.242038,0.866396
2120,534,3.31343,-0.0170495,0.240524,0.86379
2133,521,3.31096,-0.0182769,0.240967,0.861777
2146,508,3.31037,-0.0249271,0.240377,0.858915
2159,495,3.31047,-0.024239,0.239769,0.856722
2172,482,3.31059,-0.0234747,0.239154,0.854517
2185,469,3.31106,-0.0191156,0.237592,0.851784
2198,456,3.31016,-0.0249643,0.236967,0.849195
2211,443,3.31059,-0.022876,0.235871,0.846533
2224,430,3.31086,-0.0176107,0.234366,0.844167
2237,417,3.3112,-0.0154245,0.233211,0.841532
2250,404,3.3104,-0.0223502,0.232584,0.838582
2263,391,3.31078,-0.0178465,0.231013,0.835892
2276,378,3.31092,-0.0156189,0.22991,0.833286
2289,365,3.31064,-0.0224485,0.228803,0.830656
2302,352,3.3103,-0.0203668,0.228169,0.827768
2315,339,3.3106,-0.0158194,0.226592,0.825064
2328,326,3.30984,-0.0228412,0.226119,0.82213
2341,313,3.30994,-0.0206509,0.224824,0.819506
2354,300,3.3098,-0.0170155,0.223704,0.816187
2367,287,3.30944,-0.0240248,0.222576,0.813551
2380,274,3.30949,-0.0218101,0.221437,0.810866
2393,261,3.30982,-0.0171757,0.219844,0.808164
2406,248,3.30905,-0.0252372,0.219181,0.804957
2419,235,3.30892,-0.0228926,0.218028,0.802304
2432,222,3.30844,-0.0287511,0.216904,0.799018
2445,209,3.30759,-0.0289756,0.216689,0.796162
2458,196,3.30781,-0.0242852,0.21507,0.793418
2471,183,3.30819,-0.0204422,0.213653,0.790446
2484,170,3.31,-0.0239811,0.21116,0.78688
2497,157,3.31015,-0.0192226,0.209529,0.78411
2510,144,3.30949,-0.0253569,0.208398,0.78083
2523,131,3.3097,-0.0212799,0.206757,0.777798
2536,118,3.30873,-0.0298068,0.206041,0.774537
2549,105,3.31213,-0.0185399,0.202349,0.771143
2562,92,3.31108,-0.027055,0.201026,0.768124
2575,79,3.31037,-0.0282757,0.20134,0.764727
2588,66,3.31045,-0.0219195,0.199854,0.761298
2601,53,3.31067,-0.0294198,0.198215,0.758949
2614,40,3.31114,-0.0228998,0.195959,0.755824
2627,27,3.31441,-0.019845,0.191816,0.752031
2640,14,3.31563,-0.0217139,0.188443,0.748967
2651,3,3.31638,-0.0252188,0.185965,0.746036