File: hust_correlation_analysis/matrices/HUST_8-2_cycle_feature_matrix.csv
cycle_number,rul,voltage,current,capacity,charge_capacity
1,2043,3.32292,-0.00638611,0.288005,1.03757
11,2033,3.30957,-0.0106403,0.295028,1.02982
21,2023,3.30936,-0.0134299,0.295337,1.02806
31,2013,3.30997,-0.0116836,0.294554,1.02709
41,2003,3.30943,-0.0132405,0.294569,1.02602
51,1993,3.31066,-0.0115269,0.293708,1.02483
61,1983,3.31043,-0.0128164,0.293703,1.02411
71,1973,3.30998,-0.0140324,0.293708,1.02344
81,1963,3.31168,-0.0120749,0.292437,1.0226
91,1953,3.31111,-0.0133861,0.292835,1.02164
101,1943,3.31239,-0.011484,0.291576,1.02077
111,1933,3.31144,-0.0121947,0.291983,1.02019
121,1923,3.31111,-0.0128966,0.291981,1.02005
131,1913,3.31079,-0.0140235,0.291981,1.01916
141,1903,3.3117,-0.0116708,0.291122,1.01833
151,1893,3.31171,-0.0127621,0.29112,1.01774
161,1883,3.3114,-0.0127806,0.291123,1.01772
171,1873,3.31094,-0.0140877,0.291538,1.01682
181,1863,3.31259,-0.011505,0.290271,1.01632
191,1853,3.3124,-0.0121406,0.290265,1.01595
201,1843,3.3121,-0.0128001,0.290267,1.0156
211,1833,3.31151,-0.0134873,0.290666,1.01499
221,1823,3.31099,-0.0141157,0.290674,1.01467
231,1813,3.3129,-0.0116295,0.289395,1.01432
241,1803,3.31215,-0.011952,0.289797,1.01366
251,1793,3.31195,-0.012444,0.28979,1.01338
261,1783,3.31254,-0.0129556,0.289384,1.01327
271,1773,3.31211,-0.0141015,0.289382,1.01264
281,1763,3.31313,-0.0117527,0.288716,1.0118
291,1753,3.31288,-0.0123976,0.288616,1.01147
301,1743,3.31267,-0.012926,0.288607,1.01115
311,1733,3.31214,-0.013617,0.288517,1.01075
321,1723,3.31314,-0.0117138,0.287644,1.00967
331,1713,3.31314,-0.0123912,0.28765,1.00929
341,1703,3.31304,-0.0130087,0.287247,1.00914
351,1693,3.31209,-0.0142387,0.287659,1.00827
361,1683,3.31342,-0.0117672,0.286087,1.00768
371,1673,3.31334,-0.0123066,0.286391,1.0074
381,1663,3.31282,-0.012953,0.286392,1.00703
391,1653,3.31233,-0.0142991,0.286796,1.00609
401,1643,3.31388,-0.0117012,0.285525,1.00553
411,1633,3.31336,-0.0123842,0.285531,1.00521
421,1623,3.31304,-0.0135506,0.285528,1.00455
431,1613,3.31299,-0.0141597,0.285528,1.00422
441,1603,3.31482,-0.0116573,0.284273,1.00385
451,1593,3.31426,-0.0123385,0.28426,1.00326
461,1583,3.31453,-0.0129431,0.284266,1.00293
471,1573,3.31403,-0.0136663,0.284457,1.00252
481,1563,3.31321,-0.014374,0.284661,1.00192
491,1553,3.31486,-0.0125075,0.283405,1.00101
501,1543,3.31429,-0.013101,0.283391,1.00065
511,1533,3.31336,-0.0137871,0.283786,1.00005
521,1523,3.31526,-0.0118284,0.282527,0.999187
531,1513,3.31503,-0.0117814,0.282114,0.999392
541,1503,3.31482,-0.0130756,0.282129,0.998704
551,1493,3.31501,-0.0136271,0.282122,0.998355
561,1483,3.31636,-0.0117398,0.281673,0.997268
571,1473,3.31534,-0.0123788,0.281667,0.996729
581,1463,3.31516,-0.0129981,0.281665,0.996383
591,1453,3.31412,-0.0143686,0.282072,0.995423
601,1443,3.31535,-0.0119896,0.280803,0.99476
611,1433,3.31514,-0.010895,0.280407,0.994706
621,1423,3.31565,-0.0131325,0.280398,0.994324
631,1413,3.31635,-0.00930309,0.279543,0.993415
641,1403,3.31543,-0.0153439,0.280512,0.992892
651,1393,3.31641,-0.0128884,0.27965,0.992087
661,1383,3.3148,-0.0139231,0.28034,0.991294
671,1373,3.31598,-0.0096216,0.278948,0.990999
681,1363,3.31565,-0.012607,0.279664,0.989848
691,1353,3.31673,-0.00872192,0.278196,0.989121
701,1343,3.31577,-0.0096762,0.278483,0.988567
711,1333,3.31596,-0.0120362,0.2786,0.987968
721,1323,3.31737,-0.013112,0.277995,0.987554
731,1313,3.3164,-0.00933969,0.277612,0.98656
741,1303,3.31508,-0.0107229,0.278412,0.98539
751,1293,3.31659,-0.0129949,0.277633,0.985206
761,1283,3.3162,-0.00917899,0.277141,0.984233
771,1273,3.31574,-0.0108306,0.277265,0.983132
781,1263,3.31588,-0.0128572,0.277258,0.982866
791,1253,3.31618,-0.0135296,0.276848,0.982682
801,1243,3.31723,-0.0120522,0.27638,0.981105
811,1233,3.31677,-0.0127687,0.276384,0.980712
821,1223,3.31563,-0.0143694,0.276784,0.979618
831,1213,3.31625,-0.0152602,0.276505,0.979131
841,1203,3.31651,-0.0133993,0.275923,0.977966
851,1193,3.31524,-0.0140606,0.276326,0.977404
861,1183,3.31692,-0.0118753,0.275046,0.976591
871,1173,3.31748,-0.0082986,0.27405,0.975668
881,1163,3.31653,-0.0141879,0.27517,0.975132
891,1153,3.3164,-0.0148745,0.275176,0.974754
901,1143,3.3181,-0.012134,0.273762,0.974405
911,1133,3.3181,-0.00797844,0.273164,0.973579
921,1123,3.31717,-0.00990948,0.273572,0.972328
931,1113,3.31765,-0.0119371,0.273303,0.972111
941,1103,3.31681,-0.0132519,0.273704,0.971187
951,1093,3.31606,-0.0143679,0.274111,0.970382
961,1083,3.3166,-0.0148555,0.273706,0.97028
971,1073,3.31806,-0.0123113,0.272413,0.969651
981,1063,3.31733,-0.00912301,0.272224,0.968107
991,1053,3.31686,-0.0145942,0.272961,0.968041
1001,1043,3.31664,-0.0110408,0.272354,0.966874
1011,1033,3.31679,-0.0113903,0.271944,0.966843
1021,1023,3.31675,-0.0142795,0.272368,0.965991
1031,1013,3.31806,-0.0100647,0.271067,0.965355
1041,1003,3.31698,-0.01141,0.271471,0.96441
1051,993,3.31673,-0.0140728,0.271896,0.963658
1061,983,3.31555,-0.0151654,0.272305,0.962864
1071,973,3.31757,-0.0135105,0.27102,0.961727
1081,963,3.31737,-0.01412,0.271015,0.961377
1091,953,3.31645,-0.0151565,0.27112,0.96062
1101,943,3.31839,-0.00817597,0.269521,0.959238
1111,933,3.31762,-0.00912699,0.269521,0.95871
1121,923,3.31583,-0.0152874,0.270967,0.958121
1131,913,3.31778,-0.0114632,0.269665,0.957063
1141,903,3.31621,-0.0197124,0.270087,0.955911
1151,893,3.31703,-0.0141959,0.268365,0.954871
1161,883,3.31772,-0.0122613,0.267761,0.953675
1171,873,3.31822,-0.0115393,0.267073,0.952987
1181,863,3.31841,-0.0065389,0.26606,0.951139
1191,853,3.31827,-0.00926533,0.26619,0.950724
1201,843,3.31665,-0.0191894,0.266813,0.949628
1211,833,3.31623,-0.0155307,0.266183,0.948464
1221,823,3.31717,-0.0135704,0.265309,0.947303
1231,813,3.3187,-0.0130315,0.264242,0.946345
1241,803,3.31632,-0.0194309,0.264994,0.945094
1251,793,3.31654,-0.0147229,0.263878,0.943402
1261,783,3.31826,-0.0116358,0.262311,0.941766
1271,773,3.31761,-0.0143454,0.262748,0.941002
1281,763,3.31667,-0.0141273,0.262745,0.939857
1291,753,3.31778,-0.0109758,0.261456,0.938218
1301,743,3.317,-0.0174371,0.261444,0.937119
1311,733,3.31737,-0.0126708,0.260157,0.935103
1321,723,3.31646,-0.0148202,0.260564,0.933763
1331,713,3.31645,-0.0186246,0.259682,0.931912
1341,703,3.31571,-0.020667,0.260089,0.930652
1351,693,3.31593,-0.0159038,0.2588,0.928611
1361,683,3.3174,-0.0127381,0.257512,0.926996
1371,673,3.31566,-0.0131372,0.257908,0.925314
1381,663,3.31632,-0.0187041,0.257026,0.923807
1391,653,3.31583,-0.0110846,0.255697,0.921121
1401,643,3.3166,-0.008552,0.254666,0.919338
1411,633,3.31503,-0.010818,0.255211,0.917545
1421,623,3.31657,-0.0145723,0.253555,0.915492
1431,613,3.31442,-0.0192774,0.254756,0.913975
1441,603,3.31512,-0.0143449,0.253459,0.911973
1451,593,3.31554,-0.0119325,0.252568,0.909721
1461,583,3.31528,-0.016601,0.252083,0.907299
1471,573,3.31395,-0.0194089,0.25249,0.905671
1481,563,3.31354,-0.0151445,0.251595,0.903105
1491,553,3.31456,-0.0197366,0.250295,0.9011
1501,543,3.31389,-0.0193626,0.250009,0.898728
1511,533,3.31432,-0.0150611,0.248919,0.896346
1521,523,3.31345,-0.0178987,0.248776,0.894712
1531,513,3.31375,-0.00866548,0.247318,0.891673
1541,503,3.31396,-0.0142148,0.246558,0.888858
1551,493,3.31376,-0.0117158,0.245654,0.886608
1561,483,3.31388,-0.0205699,0.245058,0.884389
1571,473,3.3127,-0.0186157,0.244967,0.881765
1581,463,3.31256,-0.0124181,0.243443,0.879306
1591,453,3.31354,-0.014294,0.242764,0.876878
1601,443,3.3118,-0.0176521,0.242444,0.874287
1611,433,3.31234,-0.0136205,0.241316,0.871718
1621,423,3.31094,-0.0155588,0.241362,0.868929
1631,413,3.31211,-0.0167931,0.239723,0.86689
1641,403,3.31063,-0.0186999,0.239951,0.863864
1651,393,3.31096,-0.0168391,0.238905,0.86147
1661,383,3.31158,-0.0170712,0.237392,0.858196
1671,373,3.30996,-0.0220002,0.237896,0.85655
1681,363,3.31157,-0.0165028,0.235915,0.853539
1691,353,3.31027,-0.0143436,0.235841,0.85089
1701,343,3.31197,-0.0160658,0.233739,0.84839
1711,333,3.31049,-0.0163088,0.233841,0.845354
1721,323,3.31006,-0.016051,0.233331,0.843063
1731,313,3.31021,-0.0214485,0.232592,0.840688
1741,303,3.31205,-0.0120091,0.230068,0.837432
1751,293,3.31058,-0.0099989,0.229803,0.834659
1761,283,3.30932,-0.0120454,0.229952,0.832259
1771,273,3.31006,-0.0210342,0.229151,0.83041
1781,263,3.31015,-0.0171349,0.228228,0.827462
1791,253,3.30966,-0.0132831,0.227297,0.824434
1801,243,3.30909,-0.0213248,0.226792,0.82201
1811,233,3.30945,-0.018658,0.225869,0.819751
1821,223,3.31035,-0.0125733,0.224125,0.816873
1831,213,3.30973,-0.0189405,0.223608,0.813955
1841,203,3.30955,-0.0186643,0.223087,0.811664
1851,193,3.30923,-0.0140608,0.222154,0.808947
1861,183,3.30864,-0.0185477,0.221074,0.806209
1871,173,3.30824,-0.0164248,0.220384,0.803671
1881,163,3.30872,-0.0141606,0.219453,0.801207
1891,153,3.30936,-0.0177457,0.217864,0.79893
1901,143,3.307,-0.0236725,0.219242,0.796418
1911,133,3.30754,-0.0196171,0.217892,0.793626
1921,123,3.30958,-0.00920508,0.215284,0.790679
1931,113,3.3088,-0.017292,0.215152,0.788183
1941,103,3.30916,-0.0126408,0.213798,0.785608
1951,93,3.30745,-0.0165735,0.21437,0.783559
1961,83,3.30796,-0.0139833,0.213189,0.780986
1971,73,3.30812,-0.0199411,0.212248,0.778591
1981,63,3.30782,-0.0154558,0.211527,0.77594
1991,53,3.30774,-0.0108187,0.210406,0.773317
2001,43,3.3059,-0.0163379,0.211278,0.771504
2011,33,3.3056,-0.0246821,0.210382,0.769215
2021,23,3.30859,-0.0138984,0.207726,0.766276
2031,13,3.3084,-0.01196,0.207174,0.763379
2041,3,3.30593,-0.0132453,0.207574,0.761386