File: hust_correlation_analysis/matrices/HUST_10-7_cycle_feature_matrix.csv
cycle_number,rul,voltage,current,capacity,charge_capacity
1,1785,3.31211,0.0227624,0.272211,1.05144
10,1776,3.30368,-0.0126401,0.283571,1.0319
19,1767,3.30693,-0.0124497,0.281179,1.0384
28,1758,3.31009,-0.0106246,0.27862,1.04078
37,1749,3.31036,-0.0124961,0.278385,1.04229
46,1740,3.31308,-0.00909742,0.276109,1.04298
55,1731,3.3125,-0.0102383,0.276109,1.04226
64,1722,3.31245,-0.0113709,0.276107,1.04154
73,1713,3.31401,-0.00956353,0.274553,1.0409
82,1704,3.31372,-0.0107833,0.274905,1.03998
91,1695,3.31277,-0.0118724,0.275346,1.03912
100,1686,3.31394,-0.00963613,0.274055,1.03854
109,1677,3.31302,-0.0108113,0.274408,1.03763
118,1668,3.31315,-0.011832,0.274408,1.03697
127,1659,3.31435,-0.0102112,0.273558,1.03583
136,1650,3.31401,-0.0106638,0.273564,1.03557
145,1641,3.31329,-0.0118554,0.273915,1.03463
154,1632,3.31442,-0.00960833,0.273064,1.03388
163,1623,3.31469,-0.0106123,0.273199,1.03307
172,1614,3.31369,-0.0117627,0.273772,1.03218
181,1605,3.3147,-0.00961121,0.272918,1.03134
190,1596,3.31384,-0.0102535,0.273271,1.03076
199,1587,3.31334,-0.0109141,0.273629,1.03017
208,1578,3.3135,-0.0119226,0.273629,1.02954
217,1569,3.31277,-0.0120634,0.27398,1.02926
226,1560,3.31245,-0.0126438,0.274319,1.02863
235,1551,3.31325,-0.010636,0.273473,1.02773
244,1542,3.31254,-0.0112395,0.274114,1.02718
253,1533,3.31217,-0.0122005,0.273444,1.02679
262,1524,3.31311,-0.00997512,0.272624,1.026
271,1515,3.31307,-0.0110281,0.272714,1.02535
280,1506,3.31241,-0.0116743,0.272986,1.02479
289,1497,3.31136,-0.0123697,0.27352,1.02417
298,1488,3.31328,-0.0105051,0.272134,1.02334
307,1479,3.31308,-0.0110813,0.27249,1.02279
316,1470,3.31232,-0.0117015,0.272493,1.02242
325,1461,3.31378,-0.00996576,0.271637,1.02131
334,1452,3.31347,-0.0105712,0.271997,1.02076
343,1443,3.31301,-0.0110546,0.272002,1.02049
352,1434,3.31235,-0.0116636,0.272363,1.01993
361,1425,3.31386,-0.00985268,0.271149,1.01904
370,1416,3.31284,-0.0104313,0.27151,1.01852
379,1407,3.31238,-0.0111099,0.272096,1.01789
388,1398,3.31261,-0.0116402,0.271876,1.01761
397,1389,3.31395,-0.00917467,0.270657,1.01711
406,1380,3.3133,-0.00983644,0.271018,1.01652
415,1371,3.31297,-0.0109469,0.271384,1.01569
424,1362,3.31212,-0.0111058,0.271373,1.01555
433,1353,3.31172,-0.0122787,0.271736,1.01463
442,1344,3.31369,-0.00994421,0.270514,1.01405
451,1335,3.31302,-0.010663,0.270873,1.01342
460,1326,3.312,-0.0111398,0.271243,1.01298
469,1317,3.31181,-0.0117889,0.271243,1.01258
478,1308,3.31277,-0.0100044,0.270387,1.01149
487,1299,3.3129,-0.0105754,0.27039,1.01115
496,1290,3.31261,-0.0112892,0.270747,1.0105
505,1281,3.3112,-0.0123917,0.271123,1.00971
514,1272,3.313,-0.00942302,0.269893,1.00947
523,1263,3.31271,-0.0106402,0.270265,1.00857
532,1254,3.31192,-0.0111696,0.270636,1.00808
541,1245,3.3113,-0.0123912,0.270998,1.00716
550,1236,3.31244,-0.00995895,0.269766,1.00659
559,1227,3.31272,-0.0105294,0.269766,1.00624
568,1218,3.31169,-0.0116922,0.270133,1.00535
577,1209,3.31081,-0.0124301,0.270503,1.00473
586,1200,3.313,-0.0100256,0.269269,1.00416
595,1191,3.31174,-0.0107299,0.269637,1.00356
604,1182,3.31096,-0.0119304,0.270008,1.00265
613,1173,3.31095,-0.0124572,0.270004,1.00232
622,1164,3.31203,-0.0100835,0.269147,1.00158
631,1155,3.31133,-0.011361,0.26952,1.00064
640,1146,3.31124,-0.0120091,0.269516,1.0002
649,1137,3.31209,-0.010148,0.268659,0.999254
658,1128,3.31149,-0.0112641,0.269029,0.998303
667,1119,3.31131,-0.012086,0.269024,0.997782
676,1110,3.31215,-0.00960629,0.268163,0.997084
685,1101,3.31131,-0.0109419,0.268754,0.996096
694,1092,3.311,-0.0114412,0.26853,0.995776
703,1083,3.30982,-0.0126807,0.269286,0.994533
712,1074,3.31182,-0.0108162,0.26804,0.993681
721,1065,3.31058,-0.0116035,0.268418,0.993144
730,1056,3.30984,-0.0129503,0.268789,0.992152
739,1047,3.31115,-0.0103464,0.267633,0.991699
748,1038,3.31077,-0.0115484,0.26811,0.990819
757,1029,3.30966,-0.0128652,0.268307,0.989824
766,1020,3.31006,-0.0109945,0.26817,0.988758
775,1011,3.31084,-0.00907374,0.267007,0.987672
784,1002,3.31091,-0.00967069,0.267006,0.987317
793,993,3.31089,-0.0109876,0.267164,0.986185
802,984,3.31045,-0.00914817,0.266894,0.98503
811,975,3.31117,-0.00979398,0.266465,0.984632
820,966,3.30991,-0.0111667,0.266921,0.983656
829,957,3.309558,-0.0123483,0.267131,0.982929
838,948,3.31092,-0.0103629,0.265962,0.981841
847,939,3.30928,-0.0118883,0.266732,0.98062
856,930,3.30963,-0.0130355,0.266729,0.979931
865,921,3.30965,-0.011064,0.266252,0.978721
874,912,3.30914,-0.0124977,0.266635,0.977708
883,903,3.30886,-0.0130497,0.2662,0.977518
892,894,3.30913,-0.0117999,0.265759,0.975854
901,885,3.30869,-0.0130978,0.266142,0.974923
910,876,3.30962,-0.0107317,0.26527,0.974058
919,867,3.30883,-0.0125888,0.265736,0.972814
928,858,3.30959,-0.0107115,0.264789,0.971663
937,849,3.30868,-0.0118329,0.265177,0.970841
946,840,3.30777,-0.013194,0.265562,0.969875
955,831,3.30904,-0.0114197,0.26469,0.968659
964,822,3.30885,-0.00995277,0.264239,0.96725
973,813,3.30934,-0.00744485,0.263535,0.966442
982,804,3.30815,-0.0127672,0.26459,0.965246
991,795,3.30826,-0.0108094,0.264409,0.963968
1000,786,3.30694,-0.0122767,0.264496,0.962923
1009,777,3.30726,-0.0136068,0.264491,0.962143
1018,768,3.30769,-0.0122974,0.263845,0.960491
1027,759,3.30635,-0.0136164,0.26441,0.959554
1036,750,3.30712,-0.0116166,0.263534,0.958434
1045,741,3.30644,-0.0134924,0.263931,0.957202
1054,732,3.30766,-0.0115886,0.263052,0.956009
1063,723,3.30578,-0.0138041,0.263845,0.954396
1072,714,3.30719,-0.0117005,0.262568,0.953491
1081,705,3.30521,-0.0130774,0.263362,0.952355
1090,696,3.30634,-0.0116961,0.262483,0.950858
1099,687,3.30464,-0.013812,0.263284,0.949314
1108,678,3.30588,-0.0125443,0.262404,0.947746
1117,669,3.30693,-0.0104715,0.261525,0.946633
1126,660,3.30492,-0.0132467,0.262734,0.944558
1135,651,3.30638,-0.0111455,0.261445,0.943605
1144,642,3.30464,-0.0133295,0.262256,0.94205
1153,633,3.30558,-0.0119017,0.261441,0.940545
1162,624,3.303595,-0.0141316,0.262188,0.938954
1171,615,3.30466,-0.0127203,0.261298,0.937418
1180,606,3.30468,-0.0115208,0.260823,0.935602
1189,597,3.3036,-0.0130117,0.261228,0.934601
1198,588,3.30415,-0.0123143,0.260767,0.932542
1207,579,3.30238,-0.0142726,0.261176,0.93128
1216,570,3.3031,-0.0130232,0.260284,0.929633
1225,561,3.30275,-0.011773,0.259807,0.927816
1234,552,3.30141,-0.0146097,0.260643,0.925928
1243,543,3.3015,-0.0133063,0.260172,0.924143
1252,534,3.30261,-0.0101648,0.25886,0.922461
1261,525,3.3028,-0.0165823,0.258395,0.920386
1270,516,3.30028,-0.0194861,0.259231,0.91843
1279,507,3.30285,-0.00903491,0.25618,0.916425
1288,498,3.30264,-0.00644458,0.255456,0.914233
1297,489,3.30283,-0.0129842,0.254879,0.912095
1306,480,3.30122,-0.0122133,0.254875,0.909993
1315,471,3.30131,-0.00601895,0.254089,0.907818
1324,462,3.30153,-0.0100245,0.252769,0.906162
1333,453,3.30068,-0.0119317,0.25259,0.903318
1342,444,3.30297,-0.0075188,0.249724,0.901
1351,435,3.30308,-0.00495719,0.248818,0.89877
1360,426,3.30104,-0.00615317,0.24923,0.896703
1369,417,3.3006,-0.0114227,0.248335,0.894246
1378,408,3.30065,-0.0119634,0.247328,0.89243
1387,399,3.30232,-0.00948329,0.246037,0.890155
1396,390,3.30067,-0.0151099,0.245933,0.88733
1405,381,3.29993,-0.0160404,0.245545,0.885583
1414,372,3.29926,-0.0156102,0.245463,0.883142
1423,363,3.30096,-0.0174207,0.243574,0.880359
1432,354,3.30092,-0.0129564,0.242477,0.878062
1441,345,3.30011,-0.014939,0.242176,0.875612
1450,336,3.30049,-0.0159143,0.240448,0.873236
1459,327,3.30083,-0.0123097,0.239295,0.870428
1468,318,3.30104,-0.00966778,0.238543,0.868208
1477,309,3.29715,-0.0155475,0.240014,0.865749
1486,300,3.29867,-0.0147339,0.23746,0.863374
1495,291,3.29852,-0.0212787,0.237131,0.860193
1504,282,3.29756,-0.0206284,0.236621,0.858072
1513,273,3.29844,-0.0148084,0.234734,0.855283
1522,264,3.29856,-0.0186119,0.233415,0.852584
1531,255,3.2982,-0.016736,0.2325,0.849946
1540,246,3.29864,-0.0128749,0.23118,0.847251
1549,237,3.29839,-0.0187231,0.230265,0.844638
1558,228,3.29829,-0.0147934,0.228945,0.841946
1567,219,3.29785,-0.0207914,0.228426,0.839111
1576,210,3.2977,-0.0189873,0.227501,0.836417
1585,201,3.298,-0.0150595,0.226176,0.833705
1594,192,3.29807,-0.0211226,0.225256,0.831041
1603,183,3.29713,-0.0194128,0.22473,0.828156
1612,174,3.29762,-0.0153851,0.223411,0.825496
1621,165,3.29719,-0.0134249,0.222487,0.822906
1630,156,3.29755,-0.0181473,0.221157,0.819799
1639,147,3.29898,-0.0122904,0.219467,0.816811
1648,138,3.29945,-0.0169646,0.217987,0.814014
1657,129,3.29794,-0.0172226,0.217878,0.811023
1666,120,3.29957,-0.0110516,0.215732,0.808411
1675,111,3.29797,-0.0199569,0.215591,0.805399
1684,102,3.29848,-0.0161133,0.214258,0.802578
1693,93,3.29865,-0.0119451,0.212926,0.799893
1702,84,3.29726,-0.0121399,0.212781,0.797173
1711,75,3.29841,-0.0149363,0.211054,0.79397
1720,66,3.2976,-0.012789,0.210112,0.791413
1729,57,3.29734,-0.0199953,0.209563,0.788198
1738,48,3.29738,-0.016028,0.208224,0.785384
1747,39,3.2964,-0.0160847,0.207672,0.782909
1756,30,3.29881,-0.0170881,0.205392,0.779353
1765,21,3.29912,-0.0137363,0.204056,0.776266
1774,12,3.29813,-0.013691,0.203498,0.773813
1783,3,3.29702,-0.0218473,0.202938,0.770266