File: hust_correlation_analysis/matrices/HUST_4-4_cycle_feature_matrix.csv
cycle_number,rul,voltage,current,capacity,charge_capacity
1,1493,3.31516,-0.0076925,0.317822,1.02201
8,1486,3.30247,-0.00963818,0.322718,1.01629
15,1479,3.30243,-0.0114275,0.322697,1.01521
22,1472,3.30438,-0.00961114,0.321091,1.01451
29,1465,3.30375,-0.010877,0.321066,1.0137
36,1458,3.30358,-0.0121208,0.321055,1.01293
43,1451,3.30544,-0.00975209,0.319441,1.01249
50,1444,3.30536,-0.0102834,0.31943,1.01216
57,1437,3.30487,-0.0115425,0.319425,1.01139
64,1430,3.30437,-0.0121582,0.31941,1.01097
71,1423,3.30577,-0.00978423,0.318236,1.01039
78,1416,3.30545,-0.0109482,0.31862,1.00957
85,1409,3.30522,-0.0110172,0.318676,1.00949
92,1402,3.30501,-0.0115998,0.318662,1.00912
99,1395,3.30675,-0.00969362,0.317519,1.00831
106,1388,3.30672,-0.0103559,0.318117,1.00788
113,1381,3.30654,-0.0109376,0.317507,1.00752
120,1374,3.306,-0.0116281,0.317951,1.00698
127,1367,3.30587,-0.0121849,0.317957,1.00666
134,1360,3.30738,-0.00976135,0.316779,1.00606
141,1353,3.30704,-0.00983484,0.31678,1.00604
148,1346,3.30681,-0.0104036,0.316794,1.00574
155,1339,3.30658,-0.0109494,0.316289,1.00539
162,1332,3.30615,-0.0115843,0.317227,1.00509
169,1325,3.30618,-0.012164,0.317248,1.00457
176,1318,3.30785,-0.00974073,0.316069,1.00396
183,1311,3.3077,-0.00975651,0.316067,1.00397
190,1304,3.30748,-0.0103422,0.316068,1.00361
197,1297,3.30749,-0.0110348,0.316056,1.00176
204,1290,3.30734,-0.0116177,0.316063,1.00283
211,1283,3.307,-0.0116301,0.316065,1.00281
218,1276,3.30698,-0.0121706,0.316061,1.0025
225,1269,3.30814,-0.00988834,0.315325,1.00167
232,1262,3.30753,-0.00994419,0.315296,1.00153
239,1255,3.30729,-0.00986419,0.315266,1.0015
246,1248,3.30707,-0.01056,0.315274,1.00111
253,1241,3.30723,-0.0111213,0.315268,1.00076
260,1234,3.30689,-0.0111827,0.315277,1.00073
267,1227,3.30683,-0.0117248,0.315289,1.00046
274,1220,3.30677,-0.0123621,0.315282,1.00004
281,1213,3.3086,-0.0099098,0.314109,0.99949
288,1206,3.30864,-0.0104719,0.314126,0.9992
295,1199,3.30824,-0.0104881,0.314119,0.999164
302,1192,3.30814,-0.0111833,0.31411,0.998705
309,1185,3.30829,-0.0117389,0.314128,0.998429
316,1178,3.30803,-0.0116385,0.314129,0.998507
323,1171,3.30771,-0.0122337,0.314118,0.99811
330,1164,3.30879,-0.00996176,0.313396,0.997312
337,1157,3.30896,-0.0104875,0.313403,0.997043
344,1150,3.3089,-0.0104407,0.312968,0.997207
351,1143,3.3082,-0.0111568,0.31339,0.99658
358,1136,3.3081,-0.0117346,0.313409,0.996299
365,1129,3.30794,-0.0123473,0.313412,0.995913
372,1122,3.30925,-0.00990219,0.312667,0.995154
379,1115,3.30915,-0.0099555,0.312755,0.995163
386,1108,3.30904,-0.0104383,0.312685,0.99488
393,1101,3.30892,-0.0110414,0.312552,0.99449
400,1094,3.30826,-0.0118243,0.313094,0.993819
407,1087,3.30841,-0.0123688,0.313129,0.993595
414,1080,3.31009,-0.00982829,0.312043,0.993101
421,1073,3.31026,-0.00979482,0.311531,0.99326
428,1066,3.31011,-0.0104085,0.312134,0.992901
435,1059,3.3095,-0.011059,0.312506,0.992394
442,1052,3.30916,-0.0117673,0.311951,0.991864
449,1045,3.30939,-0.0117141,0.311506,0.992054
456,1038,3.30875,-0.0123383,0.311941,0.991524
463,1031,3.31045,-0.00996668,0.310775,0.99089
470,1024,3.31019,-0.0104941,0.310757,0.990541
477,1017,3.30964,-0.0111984,0.311209,0.989979
484,1010,3.3096,-0.0117376,0.311213,0.989681
491,1003,3.30937,-0.0123929,0.311206,0.989262
498,996,3.31077,-0.00941768,0.310047,0.989018
505,989,3.31081,-0.0105085,0.310056,0.988377
512,982,3.31008,-0.0105926,0.31004,0.988284
519,975,3.30934,-0.0112862,0.310453,0.987651
526,968,3.30943,-0.0118377,0.31048,0.987412
533,961,3.31066,-0.00933696,0.30932,0.98686
540,954,3.3102,-0.0102016,0.309739,0.986391
547,947,3.3097,-0.0113466,0.310196,0.985315
554,940,3.30956,-0.0117877,0.310814,0.9851
561,933,3.30886,-0.0125234,0.310655,0.984513
568,926,3.31045,-0.0100024,0.309485,0.98397
575,919,3.31044,-0.0106077,0.309481,0.983616
582,912,3.3101,-0.0118094,0.309496,0.982915
589,905,3.30991,-0.0123553,0.309566,0.982578
596,898,3.3109,-0.010024,0.308766,0.981778
603,891,3.31066,-0.0105924,0.308756,0.981406
610,884,3.31029,-0.0113015,0.308757,0.98098
617,877,3.31005,-0.0118601,0.308741,0.980602
624,870,3.31136,-0.0100728,0.30802,0.979467
631,863,3.31111,-0.0106417,0.308013,0.979108
638,856,3.31061,-0.0112521,0.308006,0.978713
645,849,3.31004,-0.0120493,0.308442,0.978074
652,842,3.31168,-0.00998741,0.307284,0.977254
659,835,3.3107,-0.0108208,0.307653,0.976608
666,828,3.31004,-0.0113763,0.307711,0.976241
673,821,3.30948,-0.012641,0.308173,0.975373
680,814,3.31074,-0.0107875,0.307443,0.974247
687,807,3.31007,-0.0113699,0.307428,0.973856
694,800,3.30911,-0.0121277,0.307854,0.973201
701,793,3.31089,-0.010182,0.306679,0.972248
708,786,3.31056,-0.0107775,0.306686,0.971942
715,779,3.30986,-0.0120734,0.307117,0.970989
722,772,3.31142,-0.0101919,0.305963,0.970046
729,765,3.31114,-0.0107755,0.305967,0.969725
736,758,3.31043,-0.0120827,0.306398,0.968752
743,751,3.31131,-0.0102187,0.305652,0.967563
750,744,3.31109,-0.0108928,0.305663,0.967189
757,737,3.31034,-0.0121659,0.306099,0.966252
764,730,3.3096,-0.0128326,0.306075,0.965778
771,723,3.31088,-0.0109256,0.305371,0.964733
778,716,3.31031,-0.0121742,0.30537,0.963975
785,709,3.31155,-0.00964566,0.304177,0.963332
792,702,3.31062,-0.0109598,0.304614,0.962384
799,695,3.30995,-0.0122939,0.305084,0.961492
806,688,3.31088,-0.0103354,0.304351,0.960367
813,681,3.31016,-0.0116936,0.304789,0.959651
820,674,3.30926,-0.0129857,0.30525,0.95848
827,667,3.31064,-0.0110459,0.304526,0.957387
834,660,3.3101,-0.012277,0.304516,0.956629
841,653,3.3115,-0.0103291,0.303336,0.955663
848,646,3.31055,-0.011794,0.303793,0.954646
855,639,3.30962,-0.013048,0.304238,0.953746
862,632,3.31098,-0.011078,0.303049,0.952746
869,625,3.309936,-0.0123492,0.303475,0.951761
876,618,3.31083,-0.0105046,0.302765,0.950635
883,611,3.30975,-0.0118955,0.303217,0.949647
890,604,3.30887,-0.0131629,0.303209,0.948885
897,597,3.31002,-0.0112645,0.302491,0.947731
904,590,3.30849,-0.0132854,0.303403,0.946218
911,583,3.30952,-0.0113028,0.302664,0.945084
918,576,3.3086,-0.0133193,0.303116,0.943719
925,569,3.31014,-0.0112832,0.301944,0.942824
932,562,3.30922,-0.0132773,0.302399,0.941484
939,555,3.31002,-0.0114212,0.301668,0.940253
946,548,3.30878,-0.0183392,0.301542,0.938788
953,541,3.30952,-0.0163831,0.301048,0.937662
960,534,3.31091,-0.0116801,0.299298,0.935909
967,527,3.30941,-0.0120929,0.29976,0.934262
974,520,3.31039,-0.0157702,0.298583,0.932645
981,513,3.30948,-0.0161031,0.298591,0.931226
988,506,3.31076,-0.01239,0.296948,0.930092
995,499,3.30966,-0.0127072,0.296938,0.928604
1002,492,3.31042,-0.00973277,0.296227,0.926827
1009,485,3.31106,-0.0133447,0.295046,0.925211
1016,478,3.30992,-0.0137392,0.295027,0.923651
1023,471,3.31121,-0.00907855,0.293389,0.921811
1030,464,3.30982,-0.0178231,0.293842,0.92051
1037,457,3.31026,-0.0148552,0.293113,0.918663
1044,450,3.3113,-0.0101687,0.291473,0.916795
1051,443,3.30997,-0.0172684,0.291461,0.915309
1058,436,3.3108,-0.0148996,0.290774,0.913221
1065,429,3.30957,-0.0152156,0.290754,0.911722
1072,422,3.31058,-0.0105101,0.289126,0.90988
1079,415,3.311,-0.016633,0.288908,0.907841
1086,408,3.30928,-0.0152834,0.288857,0.906081
1093,401,3.31009,-0.0122742,0.28768,0.904386
1100,394,3.31054,-0.0099169,0.28695,0.90216
1107,387,3.31086,-0.0153891,0.286229,0.900639
1114,380,3.30949,-0.0147263,0.286227,0.898479
1121,373,3.3102,-0.0116098,0.285055,0.896838
1128,366,3.31003,-0.0094127,0.284782,0.894374
1135,359,3.30903,-0.0164969,0.28433,0.893157
1142,352,3.30938,-0.0141126,0.28361,0.890953
1149,345,3.31023,-0.011047,0.282447,0.88929
1156,338,3.30824,-0.0190182,0.282883,0.887282
1163,331,3.3093,-0.0165979,0.281837,0.885246
1170,324,3.30987,-0.0124753,0.280557,0.882881
1177,317,3.31056,-0.0162578,0.279375,0.88124
1184,310,3.3088,-0.0173156,0.279816,0.879219
1191,303,3.30971,-0.0131335,0.278655,0.87688
1198,296,3.30971,-0.0177923,0.277933,0.874652
1205,289,3.31043,-0.0146205,0.276761,0.872967
1212,282,3.3109,-0.0104059,0.275588,0.8706
1219,275,3.30876,-0.0186593,0.276018,0.868497
1226,268,3.30978,-0.0143053,0.274412,0.866364
1233,261,3.31022,-0.01018,0.273241,0.863913
1240,254,3.31073,-0.0164823,0.272509,0.862059
1247,247,3.31084,-0.0130334,0.271796,0.859142
1254,240,3.3088,-0.0141224,0.272356,0.857114
1261,233,3.3092,-0.0186955,0.271166,0.855049
1268,226,3.30952,-0.0144608,0.269879,0.852636
1275,219,3.31009,-0.0102259,0.268731,0.850265
1282,212,3.3097,-0.0166773,0.268436,0.848246
1289,205,3.30968,-0.0132407,0.267695,0.845189
1296,198,3.30828,-0.0124236,0.267253,0.84321
1303,191,3.30845,-0.0171207,0.266527,0.841039
1310,184,3.30871,-0.0153375,0.265804,0.838428
1317,177,3.30907,-0.0110438,0.264641,0.836025
1324,170,3.30901,-0.0157839,0.264522,0.83383
1331,163,3.30901,-0.0122437,0.26321,0.830898
1338,156,3.30918,-0.00973876,0.263095,0.828678
1345,149,3.30889,-0.0170852,0.262208,0.826278
1352,142,3.3093,-0.0127048,0.261045,0.823864
1359,135,3.30982,-0.00897206,0.25989,0.821148
1366,128,3.30759,-0.0181427,0.26033,0.818824
1373,121,3.30793,-0.013782,0.259168,0.816396
1380,114,3.30764,-0.0119987,0.25888,0.813616
1387,107,3.308,-0.0168708,0.257729,0.811594
1394,100,3.30784,-0.0132357,0.257013,0.80864
1401,93,3.30813,-0.0113888,0.256289,0.806044
1408,86,3.30797,-0.0162979,0.255559,0.803802
1415,79,3.30828,-0.0144947,0.254844,0.80121
1422,72,3.30825,-0.0181899,0.253684,0.798513
1429,65,3.30831,-0.0157713,0.253549,0.796158
1436,58,3.30857,-0.011895,0.251784,0.793656
1443,51,3.308672,-0.00936617,0.251073,0.791141
1450,44,3.30882,-0.0150953,0.250363,0.788616
1457,37,3.30678,-0.0150179,0.25035,0.786026
1464,30,3.30689,-0.0124035,0.249624,0.783775
1471,23,3.30679,-0.0181718,0.248899,0.781461
1478,16,3.30667,-0.0164349,0.248635,0.778442
1485,9,3.30761,-0.0115997,0.247037,0.776302
1491,3,3.30738,-0.0188227,0.246752,0.774177