File: hust_correlation_analysis/matrices/HUST_8-3_cycle_feature_matrix.csv
cycle_number,rul,voltage,current,capacity,charge_capacity
1,2292,3.31036,0.0157251,0.280808,1.03806
12,2281,3.30317,-0.0104048,0.28892,1.0219
23,2270,3.30768,-0.00835828,0.285232,1.0276
34,2259,3.3079,-0.0102385,0.284693,1.0296
45,2248,3.30921,-0.0096073,0.283524,1.03061
56,2237,3.31101,-0.00777163,0.281843,1.02989
67,2226,3.31123,-0.00902233,0.281839,1.02923
78,2215,3.31105,-0.0101221,0.281442,1.02881
89,2204,3.31209,-0.00838548,0.280549,1.02764
100,2193,3.31146,-0.00958078,0.280926,1.02675
111,2182,3.31249,-0.0078125,0.280027,1.02561
122,2171,3.3123,-0.00842143,0.280032,1.02527
133,2160,3.31149,-0.0096684,0.280218,1.02436
144,2149,3.31268,-0.00780777,0.279523,1.02325
155,2138,3.31234,-0.00836524,0.279608,1.02294
166,2127,3.31161,-0.00957517,0.279905,1.02206
177,2116,3.31219,-0.00719058,0.279009,1.02123
188,2105,3.31214,-0.0084641,0.279796,1.02033
199,2094,3.31138,-0.00911714,0.279735,1.01976
210,2083,3.31098,-0.0102781,0.280178,1.01891
221,2072,3.31252,-0.00784699,0.27889,1.01831
232,2061,3.31192,-0.00852388,0.279279,1.01774
243,2050,3.31063,-0.00863177,0.280257,1.01725
254,2039,3.31002,-0.00994966,0.280463,1.01613
265,2028,3.30983,-0.0106201,0.280456,1.01593
276,2017,3.31173,-0.0086458,0.279159,1.01507
287,2006,3.31107,-0.00928339,0.279104,1.01473
298,1995,3.31051,-0.00985213,0.279156,1.0144
309,1984,3.3101,-0.0105238,0.27955,1.01383
320,1973,3.31219,-0.00852711,0.278252,1.01296
331,1962,3.31105,-0.00923878,0.278648,1.01237
342,1951,3.31065,-0.0098369,0.278636,1.01201
353,1940,3.31223,-0.00736014,0.277742,1.01125
364,1929,3.31207,-0.00855847,0.277744,1.01059
375,1918,3.311,-0.00921442,0.278136,1.01
386,1907,3.31108,-0.00976839,0.278136,1.00972
397,1896,3.31065,-0.0104603,0.278532,1.00914
408,1885,3.31141,-0.00805441,0.277626,1.00828
419,1874,3.31135,-0.00919644,0.277619,1.00765
430,1863,3.31136,-0.00980196,0.277632,1.00734
441,1852,3.31012,-0.0105411,0.278023,1.00671
452,1841,3.3115,-0.00801846,0.277118,1.00593
463,1830,3.31124,-0.00872917,0.277524,1.00536
474,1819,3.31076,-0.00936487,0.277518,1.005
485,1808,3.31029,-0.0101164,0.277926,1.0044
496,1797,3.3106,-0.010548,0.277517,1.00436
507,1786,3.31163,-0.00801964,0.276605,1.00356
518,1775,3.31168,-0.00868539,0.276602,1.00319
529,1764,3.31063,-0.00939825,0.277252,1.0026
540,1753,3.31007,-0.0106902,0.277409,1.0017
551,1742,3.31178,-0.00750312,0.2761,1.00145
562,1731,3.31083,-0.0087651,0.276502,1.00055
573,1720,3.31133,-0.00932769,0.276905,1.00028
584,1709,3.31084,-0.00997852,0.276147,0.999916
595,1698,3.31264,-0.00735551,0.275197,0.999395
606,1687,3.31165,-0.00800113,0.275596,0.998833
617,1676,3.31061,-0.00935137,0.276005,0.997911
628,1665,3.31089,-0.00995314,0.275995,0.997568
639,1654,3.30981,-0.0106896,0.276404,0.996976
650,1643,3.31179,-0.00814088,0.275337,0.996398
661,1632,3.31167,-0.00878512,0.275084,0.99603
672,1621,3.31102,-0.00942998,0.275488,0.99548
683,1610,3.31039,-0.0100642,0.275485,0.995123
694,1599,3.3118,-0.00812334,0.274656,0.993993
705,1588,3.3117,-0.0087439,0.274578,0.993667
716,1577,3.31019,-0.00960633,0.275394,0.992811
727,1566,3.31068,-0.0100786,0.274982,0.992752
738,1555,3.30981,-0.0109227,0.275584,0.992114
749,1544,3.31199,-0.00877653,0.274064,0.991254
760,1533,3.31109,-0.00956295,0.274477,0.990635
771,1522,3.31052,-0.0102053,0.274474,0.989009
782,1511,3.30982,-0.010929,0.274879,0.989686
793,1500,3.31111,-0.00900327,0.274149,0.98852
804,1489,3.31119,-0.00953161,0.273957,0.988238
815,1478,3.31008,-0.0109425,0.274364,0.98727
826,1467,3.31231,-0.00815488,0.273039,0.986777
837,1456,3.31128,-0.00893555,0.273449,0.986161
848,1445,3.31068,-0.0102332,0.273857,0.986691
859,1434,3.31021,-0.0108567,0.273856,0.98492
870,1423,3.31127,-0.00831696,0.273179,0.98409
881,1412,3.31064,-0.00966051,0.273435,0.983176
892,1401,3.30974,-0.0104389,0.273354,0.982765
903,1390,3.31135,-0.00843588,0.272439,0.981634
914,1379,3.31137,-0.00905268,0.272433,0.981293
925,1368,3.30993,-0.0103828,0.273257,0.980166
936,1357,3.30968,-0.0110308,0.273252,0.979838
947,1346,3.3106,-0.00916282,0.272336,0.978618
958,1335,3.31026,-0.00978746,0.272338,0.97829
969,1324,3.31018,-0.0104047,0.27234,0.977979
980,1313,3.31063,-0.00851045,0.272237,0.976554
991,1302,3.31072,-0.00973899,0.271825,0.9759
1002,1291,3.30951,-0.0111663,0.272659,0.974751
1013,1280,3.31026,-0.00846637,0.27133,0.974188
1024,1269,3.30948,-0.00978451,0.271733,0.973258
1035,1258,3.30936,-0.0111167,0.272153,0.972366
1046,1247,3.31068,-0.00858642,0.270821,0.971684
1057,1236,3.30937,-0.00994835,0.271654,0.970562
1068,1225,3.30913,-0.0113341,0.27165,0.969832
1079,1214,3.31017,-0.00931501,0.27073,0.968671
1090,1203,3.30905,-0.0100196,0.271144,0.968098
1101,1192,3.30846,-0.0113749,0.271572,0.967189
1112,1181,3.30983,-0.00927875,0.270645,0.966049
1123,1170,3.30881,-0.0107541,0.271065,0.965092
1134,1159,3.30987,-0.00870334,0.270135,0.963914
1145,1148,3.30886,-0.0101264,0.270747,0.962973
1156,1137,3.3079,-0.0114445,0.270985,0.962087
1167,1126,3.30917,-0.00948028,0.270059,0.960887
1178,1115,3.30887,-0.0101337,0.270057,0.960554
1189,1104,3.30906,-0.00875009,0.269553,0.958809
1200,1093,3.30805,-0.0100477,0.269977,0.958174
1211,1082,3.30793,-0.0115161,0.269977,0.957191
1222,1071,3.30938,-0.00939319,0.269046,0.956027
1233,1060,3.30757,-0.0108891,0.269479,0.95508
1244,1049,3.30814,-0.00892971,0.26939,0.953631
1255,1038,3.30772,-0.0102542,0.268977,0.952954
1266,1027,3.30884,-0.0082515,0.268476,0.951516
1277,1016,3.30807,-0.00953831,0.268468,0.951098
1288,1005,3.30593,-0.011143,0.26933,0.949605
1299,994,3.30751,-0.00966005,0.2684,0.948112
1310,983,3.30628,-0.0111479,0.268827,0.947154
1321,972,3.30807,-0.00905037,0.267893,0.945962
1332,961,3.30592,-0.0112872,0.268769,0.944423
1343,950,3.30751,-0.00908331,0.267394,0.94346
1354,939,3.30565,-0.0106312,0.268271,0.942269
1365,928,3.30728,-0.00906925,0.267332,0.940797
1376,917,3.30593,-0.0106208,0.267778,0.939838
1387,906,3.30739,-0.00902326,0.266832,0.938342
1398,895,3.30598,-0.0105062,0.26727,0.937384
1409,884,3.3067,-0.00919752,0.266778,0.935569
1420,873,3.30575,-0.0105641,0.266782,0.934911
1431,862,3.30564,-0.00922203,0.266723,0.93286
1442,851,3.30488,-0.0106754,0.266818,0.932146
1453,840,3.30528,-0.0093274,0.266226,0.930314
1464,829,3.30411,-0.0108954,0.266869,0.92935
1475,818,3.30449,-0.00950843,0.266188,0.927532
1486,807,3.3037,-0.0116953,0.267063,0.92625
1497,796,3.30528,-0.00934034,0.265243,0.925327
1508,785,3.30352,-0.0116942,0.266141,0.923996
1519,774,3.30397,-0.0101781,0.265647,0.921749
1530,763,3.30236,-0.0124436,0.266106,0.920938
1541,752,3.30313,-0.0110384,0.265617,0.918877
1552,741,3.30357,-0.00889824,0.264681,0.917622
1563,730,3.30154,-0.0112684,0.265593,0.916035
1574,719,3.30345,-0.00962561,0.264639,0.914525
1585,708,3.30155,-0.0118616,0.265093,0.913215
1596,697,3.30132,-0.0113917,0.265079,0.910728
1607,686,3.3022,-0.00977395,0.264122,0.909188
1618,675,3.30062,-0.0179344,0.264126,0.908045
1629,664,3.30146,-0.0132593,0.262694,0.905434
1640,653,3.30258,-0.00980937,0.261718,0.903771
1651,642,3.30035,-0.0181008,0.261749,0.902128
1662,631,3.30152,-0.0145646,0.260324,0.900458
1673,620,3.30185,-0.0111016,0.25936,0.898542
1684,609,3.30098,-0.0160704,0.258436,0.896647
1695,598,3.30137,-0.00946538,0.258398,0.894543
1706,587,3.30136,-0.0119425,0.256975,0.892528
1717,576,3.3006,-0.0188992,0.256511,0.890737
1728,565,3.30109,-0.0173831,0.255547,0.889138
1739,554,3.30081,-0.0147604,0.255105,0.886619
1750,543,3.3015,-0.0120476,0.254075,0.884329
1761,532,3.29997,-0.0103821,0.253608,0.882851
1772,521,3.30036,-0.0135907,0.252177,0.880503
1783,510,3.30085,-0.0108109,0.251214,0.878267
1794,499,3.30138,-0.0100747,0.250257,0.87632
1805,488,3.2994,-0.0173556,0.250254,0.874034
1816,477,3.30017,-0.0125759,0.24881,0.871831
1827,466,3.30058,-0.00969623,0.247838,0.869603
1838,455,3.30007,-0.0171527,0.247319,0.867419
1849,444,3.30041,-0.0143765,0.246341,0.865132
1860,433,3.29914,-0.0134471,0.245881,0.863305
1871,422,3.30016,-0.0186457,0.24445,0.861354
1882,411,3.29977,-0.0160108,0.243926,0.858789
1893,400,3.30109,-0.0110351,0.242031,0.856676
1904,389,3.30077,-0.017168,0.24106,0.854127
1915,378,3.30119,-0.0123517,0.239619,0.851702
1926,367,3.30146,-0.0164944,0.238183,0.848999
1937,356,3.30182,-0.0115523,0.23675,0.846633
1948,345,3.29993,-0.0114238,0.236737,0.844193
1959,334,3.29947,-0.0197958,0.236199,0.841727
1970,323,3.29926,-0.0170294,0.235211,0.839416
1981,312,3.29967,-0.0128364,0.233944,0.836698
1992,301,3.30006,-0.00999321,0.232771,0.834402
2003,290,3.29968,-0.0184933,0.232216,0.831899
2014,279,3.30024,-0.0121257,0.230329,0.829069
2025,268,3.3,-0.0186082,0.229345,0.826485
2036,257,3.29991,-0.0166103,0.228774,0.823585
2047,246,3.3008,-0.0113589,0.226888,0.821491
2058,235,3.30007,-0.0186737,0.226326,0.818325
2069,224,3.30041,-0.0136443,0.224878,0.815905
2080,213,3.3002,-0.0114459,0.223858,0.813293
2091,202,3.29966,-0.0166737,0.22285,0.810012
2102,191,3.29962,-0.0146375,0.221838,0.807378
2113,180,3.29974,-0.0102764,0.220386,0.804654
2124,169,3.29896,-0.0192281,0.220248,0.801894
2135,158,3.29932,-0.0126064,0.218349,0.799054
2146,147,3.29936,-0.020041,0.217323,0.796127
2157,136,3.29887,-0.0180142,0.216737,0.793233
2168,125,3.29981,-0.0133926,0.214839,0.790808
2179,114,3.29939,-0.0113534,0.214247,0.787902
2190,103,3.29863,-0.02045,0.213652,0.785395
2201,92,3.29804,-0.016948,0.212757,0.782045
2212,81,3.30076,-0.0155161,0.209255,0.778641
2223,70,3.30136,-0.0109704,0.207787,0.775932
2234,59,3.30047,-0.0111778,0.207606,0.773133
2245,48,3.2996,-0.00994209,0.206998,0.769899
2256,37,3.30019,-0.0166919,0.20552,0.767596
2267,26,3.30029,-0.0107906,0.204042,0.764139
2278,15,3.29885,-0.0211579,0.203849,0.761034
2289,4,3.29978,-0.0149869,0.201936,0.757883
2290,3,3.29912,-0.0173622,0.202364,0.757982