File: calce_correlation_analysis/matrices/CALCE_CS2_38_cycle_feature_matrix.csv
cycle_number,rul,voltage,current,capacity,charge_capacity
7,569,3.8547,-0.0131964,0.192829,0.738645
12,565,3.85789,-0.0148686,0.193325,0.733636
16,561,3.85709,-0.0130884,0.192794,0.735011
20,557,3.85627,-0.0134216,0.192758,0.7343
24,553,3.85576,-0.0134712,0.192733,0.733356
28,549,3.85839,-0.0132932,0.188216,0.718315
32,545,3.86109,-0.0177753,0.191245,0.714397
37,541,3.85875,-0.0161426,0.187645,0.706715
42,537,3.86041,-0.0148195,0.185658,0.703751
46,533,3.86154,-0.0207567,0.188738,0.702541
61,529,3.83948,-0.0415171,0.195155,0.702061
65,525,3.84086,-0.042738,0.192118,0.692808
70,521,3.83341,-0.04448,0.192567,0.689378
74,517,3.84301,-0.0414009,0.188499,0.681795
78,513,3.844,-0.0427297,0.190561,0.684404
82,509,3.84709,-0.0407014,0.188099,0.682581
86,505,3.84564,-0.0410387,0.188463,0.679746
91,501,3.84372,-0.0446716,0.189525,0.676875
99,497,3.84394,-0.0450658,0.189615,0.676582
104,493,3.84526,-0.0434675,0.187655,0.673086
108,489,3.83972,-0.0384611,0.185827,0.677856
112,485,3.8408,-0.0456012,0.18648,0.665418
116,481,3.84411,-0.0449507,0.186069,0.666428
122,477,3.846,-0.0402016,0.185599,0.670321
126,473,3.84497,-0.0404771,0.186665,0.675195
130,469,3.84393,-0.0407223,0.186443,0.675813
134,465,3.84394,-0.0386016,0.186009,0.676804
142,461,3.84411,-0.0443412,0.186326,0.666839
147,457,3.86034,-0.0231205,0.18158,0.67139
153,453,3.86515,-0.017214,0.17845,0.670154
157,449,3.85733,-0.0121096,0.176908,0.675977
161,445,3.85944,-0.0168807,0.176931,0.665213
166,441,3.86093,-0.0206097,0.177988,0.660584
171,437,3.8639,-0.0153659,0.177992,0.671382
176,433,3.86117,-0.0155724,0.179441,0.676656
180,429,3.86148,-0.0152232,0.179453,0.675708
184,425,3.86254,-0.0137005,0.178952,0.677019
191,421,3.85904,-0.0177421,0.177435,0.662135
195,417,3.8636,-0.0150173,0.174984,0.660644
201,413,3.86364,-0.016702,0.176991,0.663709
207,409,3.85707,-0.0135472,0.175924,0.669863
212,405,3.8675,-0.0181882,0.179029,0.66582
217,401,3.86503,-0.0184204,0.179034,0.667246
222,397,3.86131,-0.0136901,0.178945,0.676962
226,393,3.86084,-0.0140112,0.178971,0.678146
231,389,3.86188,-0.0119212,0.178463,0.678909
235,385,3.86159,-0.0124864,0.178484,0.679033
239,381,3.86151,-0.0151653,0.17651,0.666575
243,377,3.86308,-0.0138289,0.177486,0.67224
247,373,3.86251,-0.0151001,0.176477,0.665255
251,369,3.85942,-0.0107871,0.174933,0.671071
255,365,3.86318,-0.0163768,0.175496,0.658188
260,361,3.86117,-0.0185163,0.17598,0.657116
264,357,3.8659,-0.0169371,0.176989,0.66166
269,353,3.8613,-0.0181669,0.175952,0.656028
277,349,3.86087,-0.0198765,0.176481,0.654949
282,345,3.85887,-0.0203975,0.176469,0.655511
288,341,3.86105,-0.0170242,0.173973,0.654179
292,337,3.86312,-0.015386,0.17498,0.660188
296,333,3.85966,-0.0200671,0.174946,0.649789
301,329,3.86145,-0.0168174,0.17545,0.658188
305,325,3.86296,-0.0133735,0.174447,0.661067
309,321,3.86338,-0.0135805,0.174449,0.661019
313,317,3.8605,-0.0155599,0.176396,0.663629
318,313,3.86202,-0.0149781,0.171918,0.648973
322,309,3.86083,-0.016768,0.175407,0.656915
326,305,3.86131,-0.0201061,0.173428,0.643415
335,301,3.85798,-0.0151126,0.171949,0.652509
340,297,3.86533,-0.0221884,0.175519,0.646187
344,293,3.86401,-0.0152959,0.173448,0.653833
348,289,3.86307,-0.0152953,0.17345,0.654557
352,285,3.863,-0.0155237,0.173435,0.654191
356,281,3.86265,-0.015542,0.173431,0.654324
360,277,3.86135,-0.0199317,0.17192,0.6382
366,273,3.86452,-0.0185189,0.169929,0.63426
370,269,3.86416,-0.0241073,0.174451,0.637392
375,265,3.85988,-0.0219996,0.170896,0.63109
379,261,3.86478,-0.017158,0.170923,0.640129
384,257,3.86165,-0.0221626,0.173919,0.640906
388,253,3.86111,-0.0241763,0.171436,0.629163
394,249,3.86346,-0.0189856,0.171385,0.638234
398,245,3.86416,-0.0174933,0.170907,0.641024
402,241,3.86493,-0.0156363,0.170399,0.642109
406,237,3.86106,-0.0192854,0.172864,0.643862
410,233,3.86323,-0.0207205,0.168903,0.627116
414,229,3.86556,-0.0208522,0.170422,0.630646
419,225,3.86326,-0.0205475,0.168865,0.625794
423,221,3.86529,-0.0173108,0.169366,0.633957
427,217,3.86244,-0.0227243,0.169363,0.624005
431,213,3.86056,-0.024782,0.171398,0.628205
435,209,3.86155,-0.025667,0.170433,0.621308
439,205,3.86604,-0.0280708,0.171045,0.619896
443,201,3.8632,-0.0207206,0.170384,0.631481
449,197,3.86356,-0.0194796,0.169826,0.632456
453,193,3.86141,-0.0226641,0.170857,0.628592
457,189,3.86565,-0.0191921,0.169894,0.632063
462,185,3.86133,-0.0210521,0.170324,0.630234
466,181,3.86419,-0.0176575,0.16936,0.634112
470,177,3.86322,-0.0193552,0.16834,0.626941
475,173,3.86027,-0.016126,0.167275,0.631066
479,169,3.86391,-0.0194161,0.168335,0.626259
483,165,3.86354,-0.0177032,0.169306,0.633022
487,161,3.86442,-0.0157346,0.168822,0.634898
491,157,3.86403,-0.0160115,0.168825,0.635335
496,153,3.86402,-0.0145016,0.168307,0.637646
500,149,3.86488,-0.017662,0.169384,0.63475
504,145,3.86507,-0.0175114,0.167858,0.628708
508,141,3.86357,-0.0175312,0.169318,0.632923
512,137,3.86268,-0.0192622,0.168314,0.626516
516,133,3.86199,-0.0193328,0.169814,0.631005
520,129,3.86473,-0.0173552,0.166331,0.623083
524,125,3.86438,-0.0175406,0.167833,0.628238
528,121,3.86414,-0.0194668,0.166815,0.620789
532,117,3.86408,-0.0175755,0.167783,0.626787
536,113,3.86409,-0.0177024,0.167808,0.627698
540,109,3.86457,-0.0157323,0.167278,0.628408
544,105,3.86448,-0.0160448,0.167269,0.62825
548,101,3.86163,-0.0192053,0.168272,0.626224
552,97,3.86153,-0.0157175,0.165767,0.625083
556,93,3.86472,-0.0173797,0.164802,0.616779
560,89,3.86402,-0.015735,0.164268,0.619298
564,85,3.86326,-0.0193881,0.165252,0.614276
568,81,3.86492,-0.0159043,0.162758,0.61289
573,77,3.86663,-0.0228436,0.166314,0.608602
582,73,3.86662,-0.01937,0.163772,0.607831
587,69,3.86375,-0.0194771,0.165254,0.613674
591,65,3.86347,-0.0193921,0.165236,0.612873
596,61,3.86323,-0.0178703,0.164717,0.615394
602,57,3.8607,-0.017064,0.159672,0.603527
607,53,3.86762,-0.0309331,0.163942,0.586713
614,49,3.71802,-0.802065,0.372708,0.0521935
620,45,3.86287,-0.0158457,0.158167,0.59556
624,41,3.86304,-0.0278112,0.159785,0.579399
629,37,3.8601,-0.0274555,0.159734,0.579629
633,33,3.86305,-0.0299174,0.158684,0.572212
638,29,3.86684,-0.0273759,0.157734,0.573818
642,25,3.86681,-0.0277214,0.159802,0.57752
647,21,3.86403,-0.0273076,0.157677,0.573751
653,17,3.86768,-0.0212512,0.157652,0.583274
657,13,3.86846,-0.0211155,0.157683,0.583999
662,9,3.86849,-0.0186499,0.157145,0.585553
666,5,3.86251,-0.0316313,0.1608,0.574554
671,1,3.86666,-0.0253377,0.155668,0.569675
675,0,3.86783,-0.0253588,0.157177,0.573879
680,0,3.86653,-0.0239683,0.153612,0.565773
685,0,3.86765,-0.0192128,0.154046,0.575691
689,0,3.86586,-0.022486,0.152085,0.559959
693,0,3.86602,-0.0251091,0.155606,0.56785
699,0,3.86867,-0.0295718,0.153716,0.553893
703,0,3.86785,-0.023607,0.153612,0.564607
707,0,3.86896,-0.0212481,0.153085,0.565738
711,0,3.86876,-0.0215036,0.153103,0.566225
715,0,3.86554,-0.0255666,0.151051,0.554787
721,0,3.86496,-0.0299866,0.152086,0.547443
725,0,3.86724,-0.033737,0.154715,0.548992
731,0,3.86689,-0.0280854,0.150107,0.54467
735,0,3.86734,-0.0262112,0.151066,0.55103
739,0,3.86751,-0.0270411,0.148571,0.537969
743,0,3.86622,-0.0273998,0.151552,0.548478
747,0,3.86985,-0.0245545,0.147534,0.541086
752,0,3.86764,-0.0238382,0.150487,0.550799
756,0,3.86736,-0.0238344,0.150492,0.551262
762,0,3.86713,-0.020541,0.149432,0.555806
766,0,3.86963,-0.0206637,0.148003,0.550405
770,0,3.86703,-0.0197743,0.147927,0.550076
774,0,3.86881,-0.0224827,0.146947,0.541754
781,0,3.86962,-0.0252532,0.145981,0.533613
787,0,3.86769,-0.0194791,0.144911,0.538771
798,0,3.865,-0.0303166,0.137146,0.497926
808,0,3.86502,-0.0422578,0.134351,0.470721
816,0,3.86249,-0.0443813,0.131604,0.459268
820,0,3.86529,-0.0417521,0.127937,0.450039
828,0,3.8689,-0.042988,0.130084,0.452933
832,0,3.86779,-0.0403875,0.129463,0.453276
837,0,3.8715,-0.0352237,0.127082,0.452648
844,0,3.87056,-0.0338886,0.128142,0.459042
848,0,3.871,-0.0411165,0.129838,0.452769
852,0,3.86882,-0.0362567,0.126994,0.450398
856,0,3.8693,-0.0392258,0.126021,0.443954
860,0,3.86842,-0.0367238,0.125263,0.445048
864,0,3.87013,-0.0400449,0.122532,0.432263
868,0,3.86979,-0.0397111,0.122608,0.430966
872,0,3.86851,-0.0438757,0.121462,0.424457
876,0,3.86718,-0.0474944,0.118695,0.411252
880,0,3.86588,-0.0474996,0.118701,0.410722
884,0,3.86457,-0.0515542,0.116063,0.397038
888,0,3.86808,-0.0502722,0.114134,0.391833
895,0,3.86093,-0.0560104,0.113681,0.384929
899,0,3.86687,-0.0564352,0.112361,0.377259
906,0,3.86376,-0.0563132,0.106773,0.362072
910,0,3.86203,-0.0642417,0.107886,0.355778
914,0,3.85964,-0.0589854,0.104991,0.354105
918,0,3.863,-0.0588835,0.102044,0.34286
922,0,3.86354,-0.0593236,0.10215,0.342681
926,0,3.85478,-0.0702164,0.102095,0.33222
944,0,3.85846,-0.064998,0.0958429,0.319094
948,0,3.85676,-0.0717055,0.0933466,0.305869
952,0,3.85655,-0.0709432,0.0933713,0.304408
956,0,3.85537,-0.0701977,0.0896532,0.296381
960,0,3.85334,-0.0788822,0.0908225,0.289694
964,0,3.85807,-0.0739301,0.0904927,0.292306
968,0,3.85234,-0.0755325,0.0886706,0.284875
973,0,3.8579,-0.0529797,0.0806016,0.28608
977,0,3.84669,-0.0811712,0.0824425,0.261738
984,0,3.84463,-0.0855843,0.0809166,0.259259
989,0,3.84296,-0.0939365,0.0746877,0.231359
993,0,3.83486,-0.100879,0.0734864,0.221346
997,0,3.84263,-0.0927946,0.0724746,0.226708
1001,0,3.83949,-0.0972455,0.0693348,0.21339
1005,0,3.83357,-0.105798,0.0682778,0.2056
1009,0,3.83413,-0.106088,0.0668362,0.197028
1013,0,3.83937,-0.100163,0.0679325,0.205119
1017,0,3.8389,-0.104346,0.0625618,0.187448
1021,0,3.8367,-0.107869,0.0609785,0.183292
1025,0,3.83255,-0.11723,0.0614856,0.178362
1030,0,3.83263,-0.114423,0.0614374,0.176891
1041,0,3.83187,-0.105134,0.0756187,0.228145
1045,0,3.82969,-0.116422,0.0770423,0.222003
1049,0,3.84246,-0.0945731,0.0710357,0.221
1053,0,3.84045,-0.101597,0.0679037,0.208605
1057,0,3.83729,-0.104408,0.0662393,0.202032
1061,0,3.84386,-0.0965189,0.0658195,0.202906
1065,0,3.83846,-0.104894,0.0663867,0.200822
1069,0,3.83139,-0.111885,0.0629539,0.186111
1073,0,3.84453,-0.0984008,0.0583253,0.179223
1078,0,3.83588,-0.107137,0.0609758,0.182112
1080,0,3.83263,-0.114423,0.0614374,0.176891