File: calce_correlation_analysis/matrices/CALCE_CX2_16_cycle_feature_matrix.csv
cycle_number,rul,voltage,current,capacity,charge_capacity
463,829,3.82268,-0.0233863,0.363679,0.964465
469,823,3.82458,-0.0205237,0.361067,0.961621
475,817,3.82447,-0.021546,0.36185,0.962974
482,811,3.82463,-0.0199918,0.36001,0.960352
488,805,3.82395,-0.0210669,0.359983,0.960612
494,799,3.82472,-0.0223675,0.360697,0.95709
500,793,3.83173,0.00370495,0.351942,0.957607
506,787,3.82816,-0.0186833,0.357495,0.954883
512,781,3.83585,-0.0217182,0.363019,0.952096
518,775,3.8399,0.00709209,0.346876,0.969406
524,769,3.82576,-0.0207866,0.361113,0.961587
531,763,3.82783,-0.0145542,0.357864,0.960432
537,757,3.82708,-0.0213636,0.358864,0.955771
543,751,3.82402,-0.0207893,0.357031,0.953053
549,745,3.8239,-0.0225193,0.356625,0.948707
556,739,3.82883,-0.0199304,0.355918,0.949505
563,733,3.82793,-0.0204269,0.355913,0.947446
569,727,3.82627,-0.0205382,0.355888,0.949548
575,721,3.82785,-0.0193075,0.354101,0.948609
581,715,3.82456,-0.0220459,0.354373,0.941038
587,709,3.82752,-0.0206016,0.353659,0.941981
593,703,3.82743,-0.0210333,0.353625,0.941917
600,697,3.826,-0.0203802,0.353602,0.941602
606,691,3.82479,-0.0218505,0.351399,0.937459
613,685,3.82941,-0.0198239,0.352937,0.942648
619,679,3.82794,-0.0204523,0.352926,0.944366
626,673,3.82804,-0.0191889,0.349979,0.93695
632,667,3.82439,-0.021556,0.351359,0.936039
638,661,3.82809,-0.0192008,0.349548,0.930529
645,655,3.82666,-0.0171382,0.349934,0.936067
651,649,3.83238,-0.00879151,0.344661,0.935616
657,643,3.82726,-0.0201582,0.348444,0.92962
666,637,3.82588,-0.0195732,0.350737,0.939409
672,631,3.82436,-0.0203776,0.348472,0.931258
679,625,3.8256,-0.0205361,0.347351,0.926812
685,619,3.82585,-0.0216907,0.347318,0.924625
691,613,3.82508,-0.0199756,0.345474,0.925614
697,607,3.82539,-0.0209293,0.34436,0.921515
703,601,3.82572,-0.0210452,0.345061,0.918469
709,595,3.83173,-0.0239722,0.349446,0.918837
715,589,3.82516,-0.0212951,0.345067,0.919928
721,583,3.82697,-0.020231,0.343259,0.919161
727,577,3.82759,-0.0209138,0.344359,0.918069
733,571,3.82866,-0.0203163,0.343261,0.917082
739,565,3.82833,-0.0187229,0.342558,0.91839
745,559,3.82752,-0.0191368,0.341414,0.914609
751,553,3.82646,-0.0211185,0.342107,0.913557
758,547,3.82639,-0.0189202,0.343178,0.914997
764,541,3.82362,-0.0265898,0.346519,0.920132
771,535,3.80991,-0.228557,0.443969,0.489485
777,529,3.82483,-0.0257103,0.344658,0.916589
784,523,3.82432,-0.026628,0.342441,0.91045
790,517,3.82427,-0.0256502,0.341301,0.906372
796,511,3.82493,-0.0263681,0.341303,0.906126
802,505,3.82648,-0.0254949,0.341698,0.911179
808,499,3.82512,-0.0251859,0.341686,0.911136
814,493,3.82597,-0.0257846,0.340572,0.907932
820,487,3.82374,-0.0257969,0.340161,0.900812
826,481,3.82416,-0.0266766,0.340134,0.903831
832,475,3.82421,-0.0271668,0.339001,0.899262
838,469,3.82451,-0.02571,0.338282,0.902038
844,463,3.82329,-0.0275298,0.338975,0.898546
850,457,3.82457,-0.0262117,0.33715,0.898385
856,451,3.82543,-0.0275096,0.337859,0.894577
862,445,3.82572,-0.0250442,0.335322,0.89384
868,439,3.82439,-0.0269512,0.33603,0.894512
874,433,3.82445,-0.0260273,0.336066,0.894293
880,427,3.82417,-0.027923,0.33788,0.894847
887,421,3.82609,-0.0253754,0.335407,0.896556
894,415,3.82423,-0.0271206,0.334973,0.889893
901,409,3.82327,-0.0269564,0.334958,0.889857
907,403,3.82474,-0.0261933,0.333136,0.889263
913,397,3.8241,-0.0275197,0.333868,0.885605
919,391,3.82653,-0.0253274,0.333143,0.888294
925,385,3.82536,-0.0262669,0.333144,0.887999
931,379,3.82485,-0.0267011,0.33202,0.884777
937,373,3.82275,-0.0284408,0.332705,0.881759
945,367,3.82614,-0.0251396,0.337642,0.900349
953,361,3.82743,-0.0251379,0.338763,0.90157
961,355,3.82859,-0.0239141,0.339918,0.905836
974,349,3.82796,-0.0259355,0.338411,0.897389
981,343,3.8278,-0.0238897,0.339901,0.906016
988,337,3.82894,-0.0223331,0.341454,0.915706
999,331,3.8267,-0.0237023,0.334706,0.89816
1005,325,3.82781,-0.0227167,0.332884,0.894046
1011,319,3.82508,-0.0242983,0.333565,0.890505
1018,313,3.82937,-0.0234056,0.335834,0.898239
1024,307,3.82934,-0.0227777,0.3392,0.906855
1036,301,3.82754,-0.0235408,0.332855,0.892694
1043,295,3.82828,-0.0264352,0.334311,0.887252
1049,289,3.82745,-0.0251311,0.336525,0.89397
1056,283,3.82848,-0.0227409,0.336228,0.900277
1062,277,3.82922,-0.022215,0.337361,0.906371
1070,271,3.82801,-0.0238942,0.335821,0.896375
1076,265,3.82573,-0.0205829,0.329255,0.891466
1087,259,3.82782,-0.0205038,0.33156,0.899304
1100,253,3.82658,-0.0230017,0.332866,0.89289
1107,247,3.8295,-0.0229021,0.334064,0.896033
1115,241,3.82833,-0.0232802,0.328812,0.882519
1122,235,3.82802,-0.0227689,0.33511,0.898534
1130,229,3.82777,-0.0235584,0.331731,0.888019
1136,223,3.82766,-0.0232465,0.331706,0.887684
1142,217,3.82745,-0.0211763,0.328085,0.886348
1148,211,3.82633,-0.0229971,0.332931,0.892913
1155,205,3.82997,-0.0214506,0.334457,0.901034
1161,199,3.82992,-0.0215381,0.335613,0.90362
1168,193,3.82807,-0.0197926,0.329691,0.896309
1174,187,3.82835,-0.0195698,0.324463,0.882539
1180,181,3.82655,-0.0244274,0.328384,0.876598
1186,175,3.8268,-0.0230529,0.327773,0.878805
1195,169,3.83438,-0.0383289,0.336049,0.866347
1202,163,3.83008,-0.0226527,0.32997,0.885625
1209,157,3.82737,-0.0224211,0.327005,0.880763
1217,151,3.82622,-0.0189092,0.321561,0.879128
1223,145,3.8266,-0.0227453,0.322535,0.867739
1231,139,3.828,-0.0230656,0.329961,0.884725
1243,133,3.82774,-0.0189322,0.321538,0.878366
1250,127,3.82759,-0.0238178,0.320235,0.86025
1256,121,3.82678,-0.0237948,0.320225,0.859891
1272,115,3.82808,-0.0208122,0.321127,0.869975
1282,109,3.82327,-0.0203512,0.314737,0.856223
1290,103,3.82457,-0.0242357,0.31501,0.846719
1298,97,3.82579,-0.0253681,0.320937,0.855544
1304,91,3.82656,-0.0232009,0.322488,0.865488
1317,85,3.82632,-0.0231899,0.316219,0.850369
1325,79,3.8272,-0.022928,0.318465,0.856925
1334,73,3.82703,-0.0239356,0.322518,0.864302
1349,67,3.82659,-0.0241232,0.313864,0.843563
1356,61,3.82908,-0.0260486,0.315705,0.840242
1365,55,3.82581,-0.0245097,0.316834,0.847735
1379,49,3.82298,-0.023259,0.310867,0.837364
1390,43,3.8252,-0.0248701,0.310447,0.831032
1398,37,3.82755,-0.0241759,0.313876,0.841705
1404,31,3.82701,-0.0237598,0.317282,0.852205
1418,25,3.82478,-0.0267378,0.3112,0.827732
1426,19,3.82464,-0.0236268,0.308601,0.829598
1439,13,3.82379,-0.0255529,0.306356,0.822557
1454,7,3.82416,-0.0265633,0.30932,0.82387
1467,1,3.82145,-0.0279586,0.304796,0.810765
1473,0,3.82228,-0.0258838,0.301833,0.806349
1479,0,3.82027,-0.0273017,0.300676,0.802009
1485,0,3.82679,-0.041442,0.309436,0.789351
1493,0,3.81764,-0.0281807,0.299534,0.79986
1499,0,3.82044,-0.0277717,0.300704,0.802909
1505,0,3.81897,-0.0296414,0.300268,0.795983
1511,0,3.8205,-0.0298154,0.298004,0.789321
1517,0,3.81915,-0.0282428,0.295037,0.785192
1523,0,3.81725,-0.0309113,0.295743,0.78216
1529,0,3.81726,-0.0322373,0.293486,0.774658
1537,0,3.81771,-0.0259033,0.293148,0.779518
1543,0,3.81877,-0.0265528,0.293151,0.778716
1549,0,3.82033,-0.0260174,0.291325,0.77639
1555,0,3.82081,-0.0256312,0.295451,0.787032
1562,0,3.8188,-0.0239614,0.295868,0.791023
1568,0,3.81674,-0.0253247,0.291304,0.777275
1575,0,3.8196,-0.0261024,0.290197,0.773161
1581,0,3.81824,-0.0270151,0.292054,0.77639
1588,0,3.82246,-0.0306924,0.260144,0.731788
1594,0,3.82119,-0.0314756,0.257307,0.721275
1601,0,3.82249,-0.0293459,0.255188,0.721351
1607,0,3.82073,-0.0327396,0.255335,0.717334
1614,0,3.81838,-0.0322104,0.258008,0.72046
1620,0,3.81818,-0.0324776,0.256586,0.716455
1626,0,3.81803,-0.034835,0.255927,0.710636
1638,0,3.81906,-0.0299845,0.257312,0.721474
1646,0,3.8179,-0.0324081,0.258024,0.719406
1653,0,3.81821,-0.0306598,0.255901,0.721696
1659,0,3.81679,-0.0348686,0.257347,0.712939
1665,0,3.81805,-0.0333589,0.253339,0.708932
1671,0,3.81685,-0.0328021,0.25383,0.707519
1680,0,3.81624,-0.0316232,0.25733,0.722823
1688,0,3.81608,-0.0315493,0.254507,0.713847
1694,0,3.81444,-0.0331236,0.255218,0.712768
1700,0,3.81456,-0.0329366,0.253808,0.708122
1711,0,3.81453,-0.0339848,0.252414,0.703373
1717,0,3.81561,-0.0320258,0.251727,0.706231
1723,0,3.81453,-0.0328849,0.248894,0.697822
1739,0,3.81086,-0.0327621,0.260866,0.730877
1753,0,3.80857,-0.0350511,0.257355,0.712026
1760,0,3.81152,-0.0357918,0.257368,0.711057
1775,0,3.81147,-0.034695,0.260204,0.723222
1781,0,3.81099,-0.0348956,0.263029,0.731959
1800,0,3.80994,-0.0310944,0.250331,0.706122
1813,0,3.80796,-0.0359563,0.26092,0.720703
1832,0,3.80886,-0.0331486,0.251066,0.702416
1840,0,3.80686,-0.0385505,0.252486,0.693457
1856,0,3.80651,-0.0337177,0.251003,0.701932
1868,0,3.80476,-0.0280114,0.247432,0.709186
1882,0,3.80781,-0.0367186,0.247529,0.685644
1893,0,3.80389,-0.0318759,0.251672,0.712334
1911,0,3.80574,-0.031468,0.255916,0.726651
1928,0,3.80357,-0.0374541,0.25248,0.697883
1943,0,3.80182,-0.0315329,0.250295,0.707967
1964,0,3.80176,-0.0391345,0.251062,0.691726
1975,0,3.80257,-0.0301245,0.246773,0.70612
1983,0,3.79736,-0.0376627,0.251738,0.690092
2004,0,3.79891,-0.0291405,0.260862,0.746352
2025,0,3.79911,-0.0411681,0.262427,0.719941
2046,0,3.79617,-0.0465902,0.247692,0.66781
2065,0,3.7948,-0.0510415,0.251358,0.666375
2083,0,3.79265,-0.0449788,0.249126,0.677717
2126,0,3.78756,-0.0466731,0.249828,0.675553
2142,0,3.78922,-0.0447154,0.247687,0.674249
2173,0,3.78601,-0.0539537,0.25073,0.663618
2189,0,3.78672,-0.0542612,0.254917,0.676892
2220,0,3.78412,-0.0388235,0.241246,0.674866
2245,0,3.78415,-0.0380762,0.236319,0.663616
2286,0,3.78235,-0.0537013,0.254947,0.680703
2319,0,3.78024,-0.0635372,0.237679,0.608834
2361,0,3.77894,-0.0573021,0.247345,0.655178
2412,0,3.76885,-0.0660514,0.231252,0.601339
2427,0,3.77343,-0.0437612,0.221596,0.618293
2452,0,3.77289,-0.0433924,0.215192,0.603808
2478,0,3.76923,-0.0611237,0.22177,0.585144