File: calce_correlation_analysis/matrices/CALCE_CS2_33_cycle_feature_matrix.csv
cycle_number,rul,voltage,current,capacity,charge_capacity
6,474,3.84041,-0.0101672,0.294562,0.853733
9,471,3.8438,-0.0110716,0.295088,0.849718
12,468,3.84199,-0.00952596,0.293932,0.851602
15,465,3.84355,-0.00861411,0.292247,0.849976
18,462,3.84305,-0.00863695,0.292223,0.848702
21,459,3.84055,-0.00766453,0.290493,0.846765
24,456,3.84246,-0.0105231,0.289923,0.837721
29,453,3.84303,-0.0105618,0.288768,0.834739
32,450,3.83957,-0.00960297,0.28818,0.835751
35,447,3.84337,-0.0115697,0.288211,0.830391
38,444,3.84251,-0.0116707,0.288184,0.830115
41,441,3.84622,-0.0106175,0.28767,0.829743
44,438,3.84257,-0.0118571,0.287068,0.826098
47,435,3.84323,-0.0110605,0.287635,0.829199
50,432,3.84428,-0.0102721,0.287086,0.830181
57,429,3.84245,-0.0106074,0.287656,0.831799
60,426,3.8418,-0.0118846,0.287063,0.827335
63,423,3.84131,-0.012753,0.28647,0.822949
66,420,3.84274,-0.0118421,0.284781,0.821074
69,417,3.84032,-0.0126418,0.285313,0.818534
72,414,3.84117,-0.0131348,0.285309,0.818273
75,411,3.84307,-0.0120205,0.283619,0.817117
79,408,3.84228,-0.0129975,0.284174,0.815194
83,405,3.83904,-0.0138815,0.283603,0.81159
87,402,3.84228,-0.0131722,0.283037,0.811897
90,399,3.84189,-0.0121323,0.282456,0.813273
93,396,3.84443,-0.0139174,0.283623,0.810207
96,393,3.84294,-0.0131764,0.281928,0.809268
99,390,3.84367,-0.0133905,0.283041,0.810588
102,387,3.84125,-0.0142553,0.282455,0.806906
105,384,3.84427,-0.0120226,0.281345,0.809538
108,381,3.84428,-0.0113354,0.281879,0.81238
111,378,3.84408,-0.0116093,0.281893,0.812708
114,375,3.8446,-0.0102456,0.281325,0.813075
117,372,3.84188,-0.0123642,0.280185,0.806647
120,369,3.84685,-0.0145398,0.281368,0.803771
123,366,3.84546,-0.0125455,0.279047,0.80304
126,363,3.84533,-0.0123111,0.28018,0.804965
130,360,3.84255,-0.0134569,0.279587,0.801038
133,357,3.83914,-0.0125813,0.279008,0.802495
137,354,3.84018,-0.0128017,0.281877,0.808047
140,351,3.84457,-0.0111868,0.280778,0.810539
143,348,3.84443,-0.0115729,0.280756,0.810087
146,345,3.84405,-0.0116924,0.280743,0.809286
149,342,3.84495,-0.0106603,0.280164,0.809427
153,339,3.84186,-0.0135006,0.279588,0.801106
156,336,3.84027,-0.0123474,0.277897,0.800686
159,333,3.84363,-0.0142383,0.279049,0.796959
162,330,3.84284,-0.0135959,0.278438,0.797403
165,327,3.84549,-0.013411,0.279581,0.799198
168,324,3.84455,-0.0133479,0.277332,0.795446
171,321,3.84432,-0.0128137,0.278999,0.800332
174,318,3.84669,-0.0139337,0.278474,0.796666
177,315,3.84636,-0.0108093,0.276759,0.800638
180,312,3.84403,-0.0119955,0.27843,0.80154
183,309,3.84631,-0.0109073,0.276767,0.800857
186,306,3.84941,-0.0160274,0.280795,0.79625
191,303,3.84312,-0.013131,0.2785,0.798296
194,300,3.8437,-0.011831,0.277362,0.800645
197,297,3.84385,-0.0131281,0.276226,0.792519
200,294,3.84058,-0.0124681,0.275628,0.794211
203,291,3.84464,-0.0138672,0.276208,0.791647
206,288,3.84199,-0.0149539,0.276739,0.789917
210,285,3.8433,-0.0162191,0.275072,0.781456
213,282,3.84147,-0.0161222,0.275039,0.782042
218,279,3.84237,-0.0173435,0.275613,0.780681
222,276,3.8427,-0.0146977,0.273318,0.780496
225,273,3.84514,-0.0137961,0.273888,0.784279
228,270,3.84441,-0.0146428,0.27216,0.778174
231,267,3.84466,-0.0135822,0.273858,0.78339
234,264,3.846,-0.0128053,0.2733,0.784929
237,261,3.84535,-0.0131086,0.27331,0.785196
240,258,3.84595,-0.0131523,0.273319,0.785502
243,255,3.84333,-0.0149672,0.272169,0.777879
246,252,3.84727,-0.0161754,0.273892,0.777847
249,249,3.84513,-0.0147499,0.271032,0.774387
252,246,3.8468,-0.0134055,0.271598,0.776921
255,243,3.84383,-0.016374,0.270479,0.770885
258,240,3.84475,-0.0152558,0.272139,0.77579
261,237,3.84324,-0.0171729,0.271028,0.769086
264,234,3.84479,-0.0140152,0.269322,0.773218
268,231,3.84535,-0.0145391,0.272179,0.777719
271,228,3.84598,-0.0141291,0.271602,0.778614
274,225,3.84548,-0.0139588,0.271593,0.777896
278,222,3.84533,-0.0137069,0.271582,0.777549
281,219,3.84542,-0.0145513,0.268744,0.767689
284,216,3.84767,-0.0136344,0.269319,0.771456
287,213,3.84511,-0.0158386,0.268189,0.763936
292,210,3.84461,-0.0168603,0.26875,0.762904
295,207,3.84734,-0.0160294,0.269304,0.763916
299,204,3.84519,-0.0160636,0.267009,0.759952
302,201,3.84259,-0.0135877,0.265844,0.762911
306,198,3.84955,-0.0158801,0.267029,0.757885
309,195,3.84637,-0.0147101,0.267564,0.762569
312,192,3.84774,-0.0137629,0.267011,0.764471
315,189,3.84845,-0.0121613,0.26645,0.764787
322,186,3.84689,-0.0139663,0.267009,0.76529
326,183,3.84622,-0.0151407,0.266469,0.762339
329,180,3.84868,-0.017901,0.267624,0.758203
332,177,3.84539,-0.0170903,0.266439,0.754669
336,174,3.84703,-0.0148273,0.266408,0.758803
339,171,3.84773,-0.0139401,0.265835,0.759736
343,168,3.84623,-0.0144062,0.267569,0.762155
346,165,3.84798,-0.0146403,0.266454,0.758942
349,162,3.84873,-0.0122531,0.265312,0.761854
352,159,3.84922,-0.013053,0.264165,0.758191
356,156,3.84842,-0.013291,0.263581,0.754836
359,153,3.85034,-0.0141713,0.263587,0.753481
362,150,3.84832,-0.0141994,0.263548,0.752683
365,147,3.85064,-0.0140128,0.263578,0.752994
368,144,3.84959,-0.0122807,0.263026,0.75492
371,141,3.84805,-0.0121139,0.264113,0.756574
374,138,3.85104,-0.0106267,0.261871,0.75627
377,135,3.85058,-0.0106684,0.261863,0.755839
380,132,3.84991,-0.013252,0.260737,0.74729
384,129,3.84879,-0.0121169,0.260152,0.748843
388,126,3.8506,-0.0131103,0.259608,0.745325
395,123,3.84865,-0.0117936,0.260167,0.750997
398,120,3.8485,-0.0140531,0.261298,0.745776
401,117,3.85004,-0.0128575,0.258471,0.742155
404,114,3.85229,-0.0137044,0.259056,0.740251
407,111,3.85012,-0.0118941,0.259,0.744063
410,108,3.84974,-0.0115854,0.258997,0.744477
413,105,3.85187,-0.0107898,0.257316,0.742447
416,102,3.85127,-0.0108716,0.257302,0.741735
419,99,3.8507,-0.0125708,0.256153,0.733362
422,96,3.85243,-0.0118151,0.255581,0.733504
425,93,3.85204,-0.0125559,0.253834,0.727525
428,90,3.8526,-0.011464,0.254404,0.730541
431,87,3.85064,-0.012624,0.253803,0.726267
434,84,3.85246,-0.0114875,0.253261,0.727788
437,81,3.85363,-0.011151,0.250979,0.72179
444,78,3.85387,-0.0156365,0.254415,0.718747
447,75,3.85153,-0.0128424,0.252646,0.723614
451,72,3.853,-0.0116678,0.250976,0.722655
454,69,3.85234,-0.0111366,0.250937,0.72088
459,66,3.85137,-0.0145382,0.24698,0.703594
464,63,3.84774,-0.0106229,0.244124,0.70368
469,60,3.85474,-0.012173,0.244675,0.699488
480,57,3.8504,-0.0189171,0.245076,0.690419
485,54,3.8529,-0.0164229,0.241689,0.687811
488,51,3.85307,-0.0188426,0.244138,0.682403
492,48,3.85308,-0.0149299,0.240091,0.681758
495,45,3.85405,-0.0137899,0.240662,0.685113
498,42,3.85297,-0.0158548,0.23894,0.678015
502,39,3.85438,-0.0131953,0.238931,0.681755
505,36,3.85443,-0.0132946,0.238931,0.681643
508,33,3.85462,-0.0117531,0.238341,0.682766
511,30,3.85516,-0.0111822,0.237209,0.680649
519,27,3.85605,-0.0143067,0.234955,0.667519
529,24,3.85185,-0.017019,0.236013,0.666526
533,21,3.85098,-0.0134385,0.231818,0.663948
536,18,3.852,-0.0161033,0.232416,0.655963
539,15,3.85483,-0.0155916,0.232066,0.658261
542,12,3.85507,-0.014368,0.231481,0.658743
545,9,3.85458,-0.0140854,0.231471,0.658647
548,6,3.85439,-0.0143811,0.231474,0.658354
551,3,3.85424,-0.0129553,0.2309,0.658196
554,0,3.85136,-0.0205808,0.22685,0.633849
558,0,3.85065,-0.015871,0.224849,0.639101
562,0,3.85266,-0.018566,0.224763,0.635349
566,0,3.85226,-0.020381,0.225409,0.630976
569,0,3.85438,-0.0196593,0.225603,0.630132
573,0,3.85612,-0.0240551,0.227152,0.624832
576,0,3.85491,-0.0164293,0.224559,0.632567
579,0,3.85418,-0.0186593,0.223902,0.628294
583,0,3.85479,-0.0150232,0.224024,0.632117
586,0,3.8544,-0.0159572,0.224049,0.633145
589,0,3.85549,-0.014032,0.223463,0.633686
592,0,3.8546,-0.0141857,0.223441,0.6334
595,0,3.85342,-0.015742,0.224048,0.632347
598,0,3.85378,-0.01757,0.221195,0.622917
601,0,3.85672,-0.0171345,0.221182,0.620535
604,0,3.8514,-0.0170847,0.219879,0.618907
607,0,3.85293,-0.0185361,0.220514,0.615622
610,0,3.85262,-0.0161534,0.218311,0.618253
614,0,3.8573,-0.0176517,0.218914,0.613427
621,0,3.84815,-0.0147922,0.214977,0.620653
627,0,3.84474,-0.0329332,0.204172,0.55761
632,0,3.84189,-0.035625,0.197802,0.535235
639,0,3.84055,-0.038167,0.193224,0.515076
649,0,3.84437,-0.0369784,0.189926,0.508642
652,0,3.84564,-0.0369365,0.18997,0.50934
655,0,3.8457,-0.0358273,0.190045,0.510093
658,0,3.84602,-0.0346267,0.18821,0.507607
661,0,3.84384,-0.0352598,0.188802,0.505007
664,0,3.84487,-0.0353169,0.1882,0.506336
667,0,3.84364,-0.0362528,0.18879,0.505055
673,0,3.84334,-0.0369763,0.186469,0.500389
678,0,3.84549,-0.0328327,0.1842,0.499897
681,0,3.8463,-0.0322985,0.181863,0.491837
685,0,3.84289,-0.0354167,0.179963,0.485439
688,0,3.84003,-0.0414496,0.1795,0.472753
691,0,3.84192,-0.0392022,0.177838,0.471504
694,0,3.83915,-0.0417664,0.172953,0.457324
697,0,3.83419,-0.0489593,0.170131,0.440923
700,0,3.83527,-0.0445583,0.16554,0.436736
703,0,3.83352,-0.0507723,0.163404,0.421487
706,0,3.83245,-0.0512839,0.164076,0.416648
709,0,3.83061,-0.0510158,0.16,0.409841
712,0,3.82947,-0.0543611,0.1577,0.403419
715,0,3.82826,-0.0549167,0.155286,0.39694
721,0,3.82909,-0.0461894,0.147158,0.389337
725,0,3.81964,-0.0597644,0.142761,0.359291
729,0,3.81843,-0.0542422,0.136177,0.350326
732,0,3.81085,-0.0618838,0.130506,0.327372
737,0,3.81623,-0.0594563,0.128844,0.322722
740,0,3.80687,-0.0628723,0.121865,0.302811
749,0,3.80392,-0.062636,0.113696,0.285472
776,0,3.7807,-0.061235,0.0752147,0.191578
788,0,3.79647,-0.0421583,0.0614519,0.168966
796,0,3.79118,-0.0533511,0.0614941,0.155048
804,0,3.79423,-0.0579789,0.0580982,0.14319
807,0,3.80266,-0.0427666,0.0528267,0.136767
810,0,3.80783,-0.0531003,0.0470735,0.117734
813,0,3.7978,-0.0613131,0.0474839,0.111844
816,0,3.80608,-0.0536932,0.0458071,0.110262
819,0,3.83112,-0.0892764,0.0429893,0.103939
822,0,3.82607,-0.082156,0.0341226,0.0759738
825,0,3.85285,-0.0588069,0.02934,0.069172
827,0,3.86105,-0.0555443,0.026362,0.0631415