File: calce_correlation_analysis/matrices/CALCE_CX2_37_cycle_feature_matrix.csv
cycle_number,rul,voltage,current,capacity,charge_capacity
7,580,3.82188,-0.05877,0.254052,0.888258
12,575,3.82263,-0.0592125,0.254318,0.884759
17,570,3.82467,-0.0637345,0.253245,0.874475
24,565,3.82442,-0.0649815,0.252434,0.865773
29,560,3.82453,-0.0573167,0.249762,0.87325
34,555,3.82392,-0.0573542,0.249873,0.872234
39,550,3.82358,-0.0572937,0.249899,0.871659
45,545,3.82511,-0.061667,0.248954,0.860333
63,540,3.81927,-0.0595548,0.24924,0.860729
68,535,3.82418,-0.0683621,0.245156,0.850466
74,530,3.82191,-0.0654707,0.243495,0.840905
79,525,3.82317,-0.0656089,0.243537,0.840002
84,520,3.82115,-0.0679893,0.244574,0.836986
89,515,3.82345,-0.0661999,0.241924,0.832544
95,510,3.67558,-0.948101,0.522227,0.15672
101,505,3.82495,-0.0684794,0.239775,0.830095
106,500,3.82398,-0.0647008,0.241443,0.831963
111,495,3.82102,-0.0717713,0.241161,0.819102
116,490,3.82376,-0.0682991,0.237842,0.817343
122,485,3.82502,-0.0638233,0.239062,0.827124
127,480,3.82604,-0.061792,0.238328,0.828758
132,475,3.82587,-0.0617936,0.238402,0.827896
150,470,3.82287,-0.0670434,0.239664,0.824136
157,465,3.82289,-0.0678289,0.237951,0.816858
163,460,3.82295,-0.067872,0.239209,0.820643
168,455,3.82293,-0.0655938,0.239423,0.822569
173,450,3.82333,-0.0656567,0.23913,0.822176
178,445,3.82374,-0.069064,0.235902,0.807591
183,440,3.8265,-0.0622865,0.234283,0.81432
189,435,3.82611,-0.0673719,0.234651,0.80878
200,430,3.82283,-0.0681593,0.237781,0.815166
205,425,3.82226,-0.0654424,0.239655,0.822014
210,420,3.8218,-0.0659791,0.239759,0.821185
215,415,3.82529,-0.062048,0.236562,0.819563
220,410,3.82142,-0.0663811,0.234911,0.809875
225,405,3.82512,-0.0648998,0.235187,0.810411
230,400,3.82404,-0.0637276,0.230319,0.801211
235,395,3.82381,-0.068139,0.231769,0.795795
245,390,3.83346,-0.0826551,0.237087,0.783839
254,385,3.82307,-0.0677776,0.232041,0.798271
262,380,3.81991,-0.0658496,0.229818,0.800108
268,375,3.82256,-0.0699675,0.2329,0.799407
277,370,3.8229,-0.0684604,0.231779,0.794386
282,365,3.82619,-0.0658955,0.22966,0.796227
287,360,3.8249,-0.0659677,0.230977,0.795734
293,355,3.82207,-0.0692557,0.228181,0.781135
299,350,3.8245,-0.0699206,0.225926,0.774718
306,345,3.83351,-0.0907558,0.236451,0.764855
316,340,3.82332,-0.0730712,0.231256,0.783403
321,335,3.82533,-0.0661852,0.228431,0.790339
326,330,3.82625,-0.0663789,0.227449,0.789761
332,325,3.82265,-0.0625429,0.229126,0.78904
337,320,3.82636,-0.0743879,0.226917,0.770815
344,315,3.82191,-0.0763942,0.227064,0.766461
350,310,3.82519,-0.0712224,0.221938,0.761964
357,305,3.82416,-0.0697161,0.22173,0.760915
363,300,3.8224,-0.0732694,0.222546,0.758672
371,295,3.82629,-0.0684738,0.224,0.769016
376,290,3.82502,-0.0680812,0.225555,0.775041
381,285,3.82529,-0.0678727,0.225236,0.774278
386,280,3.82128,-0.073255,0.22288,0.757398
393,275,3.82248,-0.0737743,0.222159,0.757568
399,270,3.82285,-0.0759545,0.222264,0.754294
406,265,3.83438,-0.0785406,0.22266,0.747761
411,260,3.82291,-0.0739192,0.220881,0.751479
418,255,3.82493,-0.0691545,0.22196,0.761675
425,250,3.82504,-0.0708479,0.224127,0.763836
430,245,3.82382,-0.0710699,0.224404,0.764036
435,240,3.82491,-0.0682319,0.221522,0.760539
440,235,3.82452,-0.0686826,0.223806,0.766459
445,230,3.82576,-0.0675352,0.219287,0.755828
450,225,3.82456,-0.0716073,0.222017,0.757191
455,220,3.82355,-0.0710585,0.224225,0.763076
460,215,3.82637,-0.0659194,0.22303,0.768361
465,210,3.82662,-0.0664595,0.222659,0.768214
470,205,3.82513,-0.0622086,0.219849,0.766224
476,200,3.82605,-0.0685362,0.222845,0.766274
482,195,3.82671,-0.0727158,0.223661,0.760514
487,190,3.82651,-0.0691906,0.220716,0.759243
492,185,3.82517,-0.0646429,0.218676,0.758057
497,180,3.8263,-0.0692604,0.221968,0.758605
502,175,3.82628,-0.069814,0.219712,0.752022
508,170,3.82588,-0.0667942,0.220547,0.762199
513,165,3.82631,-0.0670927,0.221349,0.760655
518,160,3.82694,-0.0671715,0.220835,0.760275
523,155,3.82425,-0.0709317,0.221714,0.757295
529,150,3.82614,-0.0695805,0.219809,0.752862
535,145,3.82501,-0.0697967,0.219055,0.751664
540,140,3.82443,-0.0715464,0.222314,0.754889
548,135,3.82689,-0.0689208,0.219235,0.751347
559,130,3.82587,-0.072271,0.219619,0.748057
564,125,3.82583,-0.0695394,0.219294,0.750643
569,120,3.82535,-0.0697325,0.219969,0.750462
579,115,3.825,-0.0734736,0.214131,0.729912
586,110,3.82425,-0.0737669,0.212502,0.722892
594,105,3.82477,-0.0676496,0.208445,0.730994
601,100,3.82566,-0.0673259,0.210338,0.729056
606,95,3.82477,-0.0819604,0.214485,0.715439
614,90,3.82711,-0.0743989,0.212469,0.725044
622,85,3.82782,-0.0743947,0.212762,0.721277
627,80,3.82494,-0.0737268,0.214685,0.727726
632,75,3.82719,-0.0706861,0.213379,0.730082
637,70,3.82681,-0.0712968,0.213305,0.730471
643,65,3.82578,-0.0717964,0.209025,0.725648
648,60,3.82783,-0.0737102,0.213159,0.721293
653,55,3.82546,-0.0720906,0.210449,0.717629
658,50,3.82555,-0.067814,0.207323,0.716393
663,45,3.82831,-0.0744534,0.211179,0.714614
668,40,3.82615,-0.0728789,0.208376,0.710551
673,35,3.82678,-0.0726437,0.21019,0.716997
678,30,3.82523,-0.0743157,0.212082,0.720377
683,25,3.8253,-0.0742958,0.212379,0.719838
690,20,3.82631,-0.0812799,0.209879,0.702982
696,15,3.82538,-0.0756081,0.208796,0.708356
701,10,3.82597,-0.0732614,0.206778,0.703442
706,5,3.82571,-0.0754371,0.20922,0.706838
712,0,3.82543,-0.0745606,0.206167,0.701562
717,0,3.82622,-0.0734708,0.206417,0.70266
722,0,3.82556,-0.0774783,0.209947,0.709526
728,0,3.82683,-0.0729369,0.210297,0.715536
733,0,3.82713,-0.0730505,0.20999,0.714959
738,0,3.83954,-0.083486,0.211635,0.702855
743,0,3.82654,-0.0692345,0.209212,0.717846
749,0,3.82943,-0.0719309,0.2098,0.715984
756,0,3.82987,-0.0697933,0.207883,0.712947
764,0,3.82502,-0.0664521,0.203442,0.706926
771,0,3.82893,-0.0734982,0.20042,0.683554
778,0,3.82563,-0.0784382,0.201154,0.678199
785,0,3.82559,-0.0793473,0.199794,0.672047
795,0,3.82638,-0.0808218,0.201865,0.675248
800,0,3.82699,-0.0785473,0.201199,0.677847
805,0,3.82734,-0.0756815,0.200666,0.680766
810,0,3.82594,-0.0785697,0.201445,0.677489
815,0,3.82609,-0.077227,0.202908,0.684961
820,0,3.82755,-0.0776903,0.203037,0.684451
825,0,3.82724,-0.075932,0.200932,0.68034
831,0,3.82564,-0.0790387,0.199121,0.671239
836,0,3.82669,-0.0786102,0.199018,0.671043
842,0,3.82731,-0.0792488,0.19503,0.65956
847,0,3.82498,-0.0831797,0.194985,0.654949
852,0,3.83166,-0.0767181,0.191467,0.656328
857,0,3.82797,-0.0781113,0.193139,0.653598
862,0,3.83697,-0.110844,0.205362,0.639901
867,0,3.82589,-0.0848995,0.19613,0.65918
875,0,3.8265,-0.0837254,0.192615,0.648716
881,0,3.82525,-0.0818956,0.192002,0.644541
886,0,3.82839,-0.0779868,0.19064,0.648341
894,0,3.82586,-0.0865284,0.192483,0.640749
899,0,3.82644,-0.0803792,0.193466,0.650734
904,0,3.82692,-0.0822569,0.193424,0.654809
910,0,3.8287,-0.0790208,0.188561,0.641241
915,0,3.82494,-0.0827234,0.190231,0.638007
920,0,3.82861,-0.0811933,0.190025,0.644336
925,0,3.82722,-0.0809327,0.187428,0.633154
933,0,3.82879,-0.0815968,0.189152,0.644067
938,0,3.82459,-0.0868534,0.192215,0.639793
943,0,3.8264,-0.081378,0.189512,0.639148
948,0,3.82685,-0.0818899,0.189466,0.638188
953,0,3.82227,-0.0866918,0.188922,0.628398
959,0,3.82599,-0.0819755,0.185857,0.625948
964,0,3.82539,-0.0847022,0.186288,0.623865
969,0,3.82435,-0.0863731,0.185992,0.622654
974,0,3.82783,-0.082106,0.183452,0.621449
979,0,3.82364,-0.0843006,0.186588,0.619925
984,0,3.82512,-0.086867,0.188102,0.627391
989,0,3.82505,-0.0852927,0.188409,0.629627
994,0,3.82379,-0.0869297,0.186469,0.622999
999,0,3.82641,-0.0876449,0.18365,0.620412
1004,0,3.82629,-0.0873811,0.184327,0.616572
1009,0,3.82695,-0.0847668,0.182922,0.61852
1015,0,3.82508,-0.0828935,0.183647,0.618432
1020,0,3.82703,-0.085803,0.181826,0.611706
1025,0,3.82632,-0.0834629,0.179726,0.607267
1032,0,3.82501,-0.0837105,0.184963,0.625457
1038,0,3.82537,-0.0831189,0.184003,0.618779
1043,0,3.82683,-0.0814231,0.180996,0.61373
1048,0,3.82841,-0.081168,0.178687,0.609239
1053,0,3.82676,-0.0850831,0.177341,0.599561
1059,0,3.82476,-0.0853403,0.1781,0.596609
1064,0,3.82534,-0.0844802,0.177221,0.598863
1069,0,3.82149,-0.0888497,0.178733,0.590858
1074,0,3.8218,-0.0914888,0.176023,0.586926
1083,0,3.82624,-0.0854992,0.176529,0.596389
1089,0,3.82515,-0.0854911,0.176978,0.599716
1094,0,3.82528,-0.0868881,0.173784,0.58532
1100,0,3.82569,-0.085964,0.174008,0.585358
1105,0,3.82444,-0.0882118,0.1763,0.589171
1110,0,3.82553,-0.0872972,0.171002,0.578077
1115,0,3.8245,-0.0890607,0.172118,0.581878
1121,0,3.82228,-0.0897109,0.175948,0.575972
1126,0,3.82492,-0.0878645,0.169729,0.570738
1145,0,3.82554,-0.0881027,0.169385,0.571305
1150,0,3.8235,-0.0890173,0.172682,0.574289
1155,0,3.82658,-0.0888519,0.169314,0.570429
1161,0,3.82282,-0.0919542,0.170856,0.567595
1166,0,3.82685,-0.0855373,0.166991,0.566169
1171,0,3.82422,-0.0920056,0.164213,0.549516
1176,0,3.82709,-0.0927071,0.163875,0.554726
1186,0,3.82608,-0.0899974,0.163298,0.557374
1191,0,3.82476,-0.0904202,0.165631,0.556234
1196,0,3.81759,-0.0962583,0.170013,0.551565
1201,0,3.8207,-0.0911,0.166551,0.549887
1206,0,3.8217,-0.0941805,0.164968,0.545742
1214,0,3.82311,-0.0968276,0.163297,0.538794
1221,0,3.82409,-0.0899722,0.166399,0.556201
1226,0,3.82382,-0.0901844,0.166001,0.556972
1236,0,3.82201,-0.0926972,0.167726,0.560241
1241,0,3.8234,-0.0899597,0.16585,0.555455
1246,0,3.82,-0.0982718,0.165417,0.543065
1251,0,3.82046,-0.0962474,0.162108,0.538397
1259,0,3.82432,-0.0933646,0.159463,0.533828
1264,0,3.82186,-0.0990238,0.158277,0.523476
1269,0,3.81889,-0.100703,0.158872,0.521564
1274,0,3.82172,-0.0982423,0.156784,0.516064
1279,0,3.82024,-0.0991092,0.158322,0.519426
1280,0,3.81833,-0.100928,0.159289,0.520511