File: calce_correlation_analysis/matrices/CALCE_CS2_34_cycle_feature_matrix.csv
cycle_number,rul,voltage,current,capacity,charge_capacity
6,449,3.83333,-0.0223968,0.297061,0.848468
9,446,3.83621,-0.0223563,0.297393,0.845696
12,443,3.83642,-0.0192722,0.294959,0.846126
15,440,3.8348,-0.0205461,0.295603,0.844664
19,437,3.83597,-0.0195368,0.294027,0.842687
22,434,3.83431,-0.0213736,0.293378,0.836105
25,431,3.83616,-0.0204677,0.293239,0.836352
28,428,3.83606,-0.0213789,0.291041,0.830186
31,425,3.83549,-0.01942,0.290419,0.833212
34,422,3.8355,-0.0213142,0.289871,0.826942
37,419,3.83483,-0.0215028,0.289907,0.827023
41,416,3.83708,-0.0206834,0.289826,0.827631
44,413,3.83491,-0.0228598,0.289305,0.82181
47,410,3.83805,-0.0195148,0.288152,0.825154
50,407,3.83805,-0.0185544,0.287866,0.82617
57,404,3.835,-0.0214825,0.290079,0.827143
60,401,3.83569,-0.0214169,0.288696,0.823082
63,398,3.83491,-0.0224845,0.287987,0.818305
66,395,3.83521,-0.021438,0.286272,0.816755
69,392,3.83316,-0.0238218,0.287217,0.813723
72,389,3.83491,-0.0225773,0.286792,0.813668
75,386,3.8361,-0.022663,0.285725,0.811962
78,383,3.8356,-0.0226837,0.285659,0.810816
81,380,3.83747,-0.0216478,0.283944,0.809381
88,377,3.83678,-0.0226981,0.287149,0.813903
92,374,3.8399,-0.0234894,0.287263,0.814051
96,371,3.83453,-0.0239151,0.286421,0.809122
99,368,3.83414,-0.0195676,0.283045,0.810967
102,365,3.83427,-0.023789,0.284602,0.805753
105,362,3.83553,-0.0229403,0.283541,0.803771
108,359,3.83975,-0.0227752,0.284892,0.804236
111,356,3.83779,-0.0207044,0.284122,0.807511
114,353,3.83731,-0.0207753,0.284256,0.807689
118,350,3.83951,-0.0196753,0.282672,0.806969
121,347,3.83714,-0.0214375,0.281363,0.801929
124,344,3.84155,-0.0238594,0.282712,0.799254
127,341,3.83869,-0.022577,0.280694,0.796968
130,338,3.83825,-0.0219296,0.282276,0.800374
133,335,3.83738,-0.0227674,0.280728,0.796793
136,332,3.83874,-0.0198165,0.280145,0.800439
140,329,3.83829,-0.0238815,0.281264,0.795252
145,326,3.83804,-0.0195553,0.282737,0.806618
149,323,3.83979,-0.0186529,0.281214,0.805374
152,320,3.83946,-0.0187879,0.281181,0.804519
155,317,3.8377,-0.0177224,0.279528,0.803141
158,314,3.83786,-0.021673,0.279162,0.795176
161,311,3.83566,-0.0217622,0.27913,0.795325
164,308,3.83901,-0.0241515,0.280153,0.791913
167,305,3.83774,-0.0228148,0.278412,0.790737
170,302,3.83989,-0.0221104,0.278908,0.790814
173,299,3.83887,-0.0229689,0.27732,0.788184
176,296,3.83854,-0.0211149,0.278471,0.792544
179,293,3.83732,-0.024007,0.277852,0.786491
183,290,3.81986,-0.0482509,0.288872,0.780413
186,287,3.82285,-0.0429236,0.286356,0.782698
189,284,3.82296,-0.0415314,0.285709,0.782786
192,281,3.82411,-0.040202,0.285081,0.782971
195,278,3.82357,-0.0426344,0.284029,0.774462
198,275,3.82454,-0.0412762,0.284534,0.777408
201,272,3.82485,-0.0410481,0.281634,0.772462
204,269,3.82637,-0.0388608,0.281042,0.77491
207,266,3.82372,-0.0408541,0.28048,0.76977
210,263,3.82089,-0.0396264,0.279862,0.771548
213,260,3.82653,-0.0420773,0.281114,0.767637
216,257,3.82509,-0.0423872,0.280062,0.765992
220,254,3.82822,-0.0384345,0.279269,0.770358
223,251,3.82941,-0.0372849,0.278666,0.771449
226,248,3.82913,-0.0372588,0.278672,0.771623
229,245,3.82918,-0.037258,0.27866,0.771766
232,242,3.8263,-0.0404643,0.280521,0.771162
236,239,3.82589,-0.0393609,0.278739,0.767696
239,236,3.82748,-0.038267,0.279255,0.771104
242,233,3.82663,-0.0408229,0.278216,0.763425
245,230,3.82307,-0.0382326,0.276952,0.765547
248,227,3.82537,-0.0417983,0.278805,0.760903
251,224,3.82638,-0.0408036,0.277067,0.759796
255,221,3.82856,-0.0383239,0.276971,0.763753
258,218,3.83005,-0.0371711,0.276372,0.764902
261,215,3.83096,-0.0358442,0.275748,0.765875
264,212,3.83098,-0.0362123,0.275851,0.765962
267,209,3.82718,-0.0399914,0.275401,0.757919
270,206,3.83175,-0.0399148,0.276525,0.758335
274,203,3.82585,-0.0410155,0.275902,0.756358
277,200,3.82832,-0.0360783,0.273465,0.759877
284,197,3.82545,-0.0405983,0.277102,0.759032
287,194,3.82647,-0.0419297,0.277665,0.757298
290,191,3.82922,-0.0384119,0.275836,0.761699
294,188,3.8295,-0.0382564,0.275826,0.759153
297,185,3.82911,-0.0397467,0.275315,0.756742
300,182,3.83145,-0.0371262,0.275215,0.759509
303,179,3.82967,-0.0383028,0.274675,0.755894
306,176,3.83153,-0.0359594,0.273468,0.758123
309,173,3.82887,-0.0384372,0.273527,0.753228
312,170,3.83024,-0.0359157,0.272305,0.755318
315,167,3.83177,-0.0373836,0.271805,0.751093
318,164,3.83165,-0.0361447,0.272325,0.75475
321,161,3.83279,-0.0349362,0.271735,0.755742
324,158,3.83237,-0.0349277,0.271714,0.755789
327,155,3.83218,-0.0349575,0.271716,0.75551
330,152,3.83093,-0.0375991,0.270707,0.747727
333,149,3.83172,-0.0376348,0.271833,0.748569
336,146,3.83086,-0.0376065,0.270691,0.745881
339,143,3.83241,-0.0363232,0.270121,0.748297
347,140,3.82787,-0.0361275,0.271229,0.753582
350,137,3.83216,-0.0374651,0.270736,0.748325
353,134,3.8315,-0.036234,0.271238,0.751646
356,131,3.83189,-0.0351117,0.270613,0.751855
359,128,3.8333,-0.0352092,0.269505,0.750073
362,125,3.83281,-0.0352388,0.269497,0.749555
366,122,3.83206,-0.0365549,0.267799,0.741586
369,119,3.83111,-0.034271,0.265463,0.74268
372,116,3.8307,-0.0378796,0.267191,0.737338
375,113,3.83063,-0.0365243,0.266572,0.738235
378,110,3.83316,-0.0390987,0.267832,0.734788
381,107,3.83117,-0.0392925,0.266681,0.732666
385,104,3.83363,-0.0366069,0.265452,0.733934
399,101,3.8295,-0.0405339,0.266171,0.73019
405,98,3.71929,-0.472663,0.454604,0.0874555
409,95,3.83265,-0.0364232,0.261424,0.726473
412,92,3.83112,-0.0417024,0.26158,0.715461
417,89,3.83321,-0.0407284,0.258721,0.711624
420,86,3.83461,-0.0378992,0.259715,0.716534
424,83,3.83301,-0.0394219,0.258047,0.710251
427,80,3.83181,-0.0395783,0.25804,0.711107
430,77,3.83407,-0.0408188,0.258662,0.707691
433,74,3.83424,-0.0381883,0.258564,0.712816
436,71,3.83535,-0.0369055,0.257966,0.713432
439,68,3.83478,-0.0367079,0.257964,0.7134
442,65,3.83557,-0.0370921,0.25689,0.710783
445,62,3.83549,-0.0400293,0.254699,0.701041
448,59,3.83708,-0.0383034,0.255161,0.701877
461,56,3.83421,-0.0377499,0.262028,0.724712
464,53,3.83531,-0.0354389,0.261429,0.724881
474,50,3.83363,-0.0413162,0.254148,0.698794
479,47,3.8338,-0.0429463,0.251311,0.686929
484,44,3.83409,-0.0430907,0.249032,0.678431
487,41,3.83309,-0.0443729,0.246713,0.670767
490,38,3.83339,-0.0466459,0.246826,0.665002
493,35,3.83493,-0.0422526,0.246084,0.670795
496,32,3.83741,-0.0408593,0.24437,0.669877
499,29,3.83553,-0.0409948,0.244313,0.668415
502,26,3.83627,-0.0411768,0.243245,0.664871
505,23,3.8369,-0.0413252,0.242122,0.662652
508,20,3.83772,-0.0413079,0.242047,0.661306
511,17,3.83762,-0.0398365,0.240297,0.65973
514,14,3.83776,-0.0399625,0.240292,0.658975
520,11,3.83567,-0.0428506,0.24154,0.65991
523,8,3.83584,-0.0430636,0.240377,0.654206
526,5,3.83498,-0.0446664,0.23695,0.646097
529,2,3.83645,-0.0447236,0.235823,0.641948
532,0,3.83329,-0.0482464,0.235915,0.636411
535,0,3.83578,-0.0464872,0.234171,0.63418
538,0,3.83306,-0.0486288,0.234813,0.632171
541,0,3.83512,-0.0471231,0.233069,0.629939
544,0,3.83503,-0.047499,0.231985,0.626991
549,0,3.83316,-0.0472043,0.233089,0.62954
552,0,3.83492,-0.0493846,0.231484,0.622518
555,0,3.83199,-0.0490162,0.231333,0.622609
558,0,3.83233,-0.0508622,0.230844,0.618343
575,0,3.82874,-0.0521761,0.232613,0.623118
578,0,3.83183,-0.0522499,0.231493,0.618027
596,0,3.82952,-0.0533649,0.226956,0.606265
599,0,3.82865,-0.0576107,0.22605,0.598775
602,0,3.82893,-0.0543197,0.224723,0.599649
605,0,3.82576,-0.059978,0.224394,0.59044
608,0,3.82806,-0.0570842,0.220843,0.585537
611,0,3.82465,-0.0601786,0.221016,0.578271
614,0,3.82826,-0.0593917,0.220368,0.579836
617,0,3.82528,-0.0612378,0.218713,0.573305
620,0,3.82471,-0.0617909,0.21757,0.569813
623,0,3.82417,-0.0615164,0.216429,0.565729
626,0,3.82209,-0.0640126,0.217065,0.564206
629,0,3.82215,-0.06262,0.215263,0.561864
632,0,3.82666,-0.0628118,0.215308,0.562484
635,0,3.82554,-0.0611464,0.213515,0.561277
648,0,3.81875,-0.0674186,0.214336,0.555396
651,0,3.81859,-0.0705767,0.215679,0.55043
654,0,3.82031,-0.0681546,0.210965,0.546072
657,0,3.82128,-0.0681551,0.210965,0.544762
660,0,3.81982,-0.06778,0.210949,0.544132
663,0,3.82157,-0.0658931,0.211391,0.546945
666,0,3.82039,-0.067196,0.210304,0.54401
669,0,3.8194,-0.0698954,0.211579,0.54073
672,0,3.81749,-0.0706951,0.210433,0.539505
676,0,3.81994,-0.072011,0.209326,0.533603
680,0,3.81757,-0.0700685,0.206361,0.530807
683,0,3.82055,-0.0680882,0.205718,0.531968
686,0,3.82073,-0.0687302,0.203465,0.526305
692,0,3.81625,-0.0714822,0.202989,0.522343
695,0,3.81656,-0.0717069,0.200734,0.514978
698,0,3.81214,-0.0772739,0.199827,0.506036
701,0,3.81399,-0.0761559,0.199107,0.505982
705,0,3.80957,-0.0805518,0.198227,0.498641
709,0,3.81086,-0.0767671,0.195694,0.498016
712,0,3.80834,-0.0832255,0.195944,0.488954
715,0,3.81168,-0.0806788,0.194137,0.489401
718,0,3.8098,-0.0826755,0.190746,0.481183
721,0,3.80854,-0.0847113,0.192521,0.479314
724,0,3.80694,-0.0854553,0.190274,0.474342
728,0,3.80951,-0.0876163,0.186929,0.464636
735,0,3.7945,-0.096285,0.181521,0.444345
742,0,3.79442,-0.102891,0.176672,0.428649
746,0,3.79874,-0.0932262,0.175553,0.445614
749,0,3.79519,-0.102355,0.17664,0.426302
755,0,3.79526,-0.10181,0.17366,0.422386
758,0,3.78508,-0.111111,0.170636,0.407496
764,0,3.78237,-0.110738,0.166491,0.398687
770,0,3.78698,-0.109344,0.164631,0.393059
773,0,3.77876,-0.117257,0.159816,0.377898
776,0,3.77971,-0.116222,0.159802,0.374038
779,0,3.77299,-0.122394,0.156436,0.366824
780,0,3.77425,-0.122789,0.155359,0.363974