File: calce_correlation_analysis/matrices/CALCE_CS2_36_cycle_feature_matrix.csv
cycle_number,rul,voltage,current,capacity,charge_capacity
7,488,3.85399,-0.01003,0.195365,0.748137
11,484,3.86187,-0.0111907,0.193896,0.740226
15,480,3.85653,-0.00945795,0.194818,0.746086
19,476,3.85878,-0.00657587,0.192359,0.744583
23,472,3.85768,-0.00793083,0.192842,0.743007
27,468,3.8526,-0.00715685,0.191265,0.738142
31,464,3.85796,-0.0108736,0.190741,0.72766
35,460,3.85986,-0.00819278,0.188255,0.725723
39,456,3.86069,-0.0111724,0.190769,0.725991
43,452,3.85919,-0.0109444,0.189205,0.72107
47,448,3.86127,-0.0079476,0.18828,0.725195
51,444,3.86104,-0.00994832,0.187216,0.717581
64,440,3.85452,-0.0118715,0.189743,0.721702
68,436,3.85804,-0.0128873,0.188222,0.715813
72,432,3.86193,-0.0113221,0.186234,0.711661
76,428,3.86254,-0.0113642,0.186224,0.710561
80,424,3.86159,-0.0114343,0.186194,0.710255
86,420,3.86046,-0.012954,0.186671,0.708038
91,416,3.86247,-0.0113408,0.184702,0.705304
95,412,3.86261,-0.0127679,0.183668,0.697868
100,408,3.86238,-0.014591,0.187176,0.705432
104,404,3.86048,-0.0131688,0.185164,0.702403
108,400,3.86001,-0.0131008,0.18664,0.706436
113,396,3.86111,-0.0130459,0.183649,0.697368
118,392,3.86084,-0.0146713,0.184141,0.695124
122,388,3.86557,-0.0131655,0.183685,0.695305
126,384,3.86149,-0.0116935,0.184651,0.703056
130,380,3.86172,-0.00987207,0.184169,0.705
134,376,3.86151,-0.00970325,0.184179,0.705377
138,372,3.86073,-0.00550843,0.181159,0.705077
142,368,3.86163,-0.0117995,0.181628,0.692685
146,364,3.85997,-0.009599,0.181114,0.694703
152,360,3.86265,-0.0133672,0.182167,0.691866
156,356,3.8639,-0.0147144,0.184189,0.693207
160,352,3.86127,-0.01498,0.182644,0.688565
164,348,3.86199,-0.0131353,0.183656,0.694964
168,344,3.85967,-0.0157354,0.183113,0.686908
173,340,3.86031,-0.0134588,0.18361,0.695369
177,336,3.86166,-0.0117975,0.183124,0.6961
181,332,3.86124,-0.0118612,0.183126,0.69629
185,328,3.86077,-0.0121894,0.183661,0.695792
189,324,3.85994,-0.0148916,0.182593,0.687286
193,320,3.86224,-0.0122087,0.182158,0.689868
197,316,3.86805,-0.0168263,0.181696,0.681379
201,312,3.86186,-0.0136862,0.180636,0.685008
206,308,3.8628,-0.0132476,0.182135,0.689296
210,304,3.86193,-0.0134986,0.180602,0.684012
214,300,3.8622,-0.0119768,0.181616,0.690514
218,296,3.86421,-0.0151779,0.182644,0.686599
222,292,3.86066,-0.0124019,0.182146,0.690072
226,288,3.86104,-0.0106427,0.181647,0.691354
231,284,3.86107,-0.0106869,0.181642,0.691362
235,280,3.86091,-0.0106694,0.181655,0.691173
239,276,3.86012,-0.0140831,0.181127,0.68253
244,272,3.85809,-0.0107607,0.180083,0.686111
250,268,3.85972,-0.0094135,0.18117,0.695526
255,264,3.77032,-0.688848,0.395002,0.127677
259,260,3.85562,-0.0132595,0.18061,0.686491
264,256,3.82535,-0.489076,0.330638,0.235987
268,252,3.86063,-0.0150219,0.181178,0.684495
272,248,3.85734,-0.0181544,0.180662,0.676729
276,244,3.85941,-0.0163066,0.181644,0.682317
280,240,3.85809,-0.0197047,0.181123,0.673705
284,236,3.85897,-0.0162418,0.181585,0.68098
288,232,3.85894,-0.0161226,0.181613,0.68187
292,228,3.85925,-0.0146351,0.181084,0.682744
296,224,3.85936,-0.0145136,0.181099,0.683138
300,220,3.86258,-0.0160531,0.178624,0.670671
304,216,3.86159,-0.0159118,0.180104,0.675424
308,212,3.86127,-0.0162872,0.178551,0.669324
312,208,3.86275,-0.0143393,0.178125,0.672284
317,204,3.86176,-0.0161512,0.180157,0.67731
321,200,3.8592,-0.0193217,0.179624,0.667948
325,196,3.86097,-0.0168836,0.180065,0.674837
329,192,3.8612,-0.0155172,0.17956,0.676346
333,188,3.85981,-0.0159044,0.180061,0.675207
339,184,3.86005,-0.0153636,0.179537,0.677065
343,180,3.86082,-0.0188419,0.177542,0.662595
347,176,3.86171,-0.0169824,0.17853,0.668435
351,172,3.86176,-0.0190244,0.176037,0.657396
355,168,3.8637,-0.0151819,0.176516,0.664778
359,164,3.86446,-0.0187318,0.174568,0.65242
363,160,3.86017,-0.0137008,0.173007,0.657514
367,156,3.86684,-0.0204567,0.176593,0.654409
371,152,3.86254,-0.0194419,0.175034,0.6498
375,148,3.86317,-0.0186393,0.176005,0.655477
379,144,3.86415,-0.0168761,0.175512,0.657611
383,140,3.86397,-0.0154035,0.175009,0.659425
387,136,3.86481,-0.0134246,0.174495,0.660245
392,132,3.86173,-0.0140511,0.171466,0.652762
396,128,3.86269,-0.0199466,0.173496,0.643294
400,124,3.86529,-0.0171797,0.170997,0.642255
404,120,3.86896,-0.0222129,0.174067,0.640475
408,116,3.86538,-0.0188302,0.171471,0.638807
412,112,3.86712,-0.0179361,0.172989,0.643306
416,108,3.86336,-0.0148666,0.170453,0.643433
420,104,3.86292,-0.0226136,0.172472,0.635746
424,100,3.86729,-0.0165372,0.170995,0.640763
428,96,3.86383,-0.0188181,0.172947,0.643925
433,92,3.86853,-0.0187456,0.169985,0.631771
437,88,3.86543,-0.0186088,0.168397,0.626585
441,84,3.86733,-0.0204389,0.170427,0.627944
445,80,3.86606,-0.0169256,0.166377,0.622057
449,76,3.86876,-0.0171617,0.167923,0.625704
453,72,3.86843,-0.017441,0.164887,0.615668
457,68,3.86895,-0.0150966,0.165904,0.62354
462,64,3.86767,-0.018693,0.165375,0.613994
467,60,3.86765,-0.0151679,0.16587,0.623154
471,56,3.86829,-0.0134501,0.165365,0.624671
475,52,3.8681,-0.0131625,0.165346,0.624036
479,48,3.86699,-0.0145423,0.165852,0.622762
483,44,3.86719,-0.0243604,0.168457,0.614084
487,40,3.86626,-0.0191806,0.163816,0.607937
491,36,3.86911,-0.0221476,0.166381,0.608185
495,32,3.86953,-0.0172301,0.161814,0.603616
499,28,3.87101,-0.0208769,0.164375,0.603988
504,24,3.86835,-0.0172315,0.160293,0.598429
515,20,3.87059,-0.0252189,0.160871,0.583578
519,16,3.8687,-0.0171429,0.160271,0.597411
523,12,3.86961,-0.0136748,0.15926,0.600709
527,8,3.86885,-0.0150634,0.159745,0.598363
533,4,3.8696,-0.0302078,0.162446,0.57837
539,0,3.86553,-0.0262035,0.156227,0.568569
549,0,3.86503,-0.0197888,0.154169,0.577007
555,0,3.86306,-0.0252182,0.154187,0.566219
559,0,3.86343,-0.0330806,0.156309,0.55709
565,0,3.86645,-0.025003,0.151132,0.552608
570,0,3.86755,-0.0150754,0.148562,0.562947
574,0,3.86714,-0.025201,0.151082,0.550892
580,0,3.87163,-0.0231877,0.149143,0.54786
586,0,3.87088,-0.0205071,0.151617,0.559516
590,0,3.87107,-0.0179577,0.151099,0.561157
594,0,3.87225,-0.0163312,0.150584,0.562316
598,0,3.87872,-0.023042,0.150677,0.55544
602,0,3.86972,-0.0205121,0.151558,0.558815
606,0,3.86956,-0.0231329,0.147489,0.539743
610,0,3.87088,-0.0225899,0.149041,0.54508
615,0,3.87144,-0.0215801,0.143963,0.530492
621,0,3.87327,-0.0174138,0.141444,0.529233
626,0,3.87245,-0.0233028,0.142991,0.524697
632,0,3.87233,-0.0239932,0.143013,0.523963
637,0,3.8707,-0.0231846,0.145986,0.532955
641,0,3.87229,-0.0212247,0.145498,0.535191
645,0,3.87196,-0.0211023,0.14551,0.53583
649,0,3.86919,-0.0229132,0.140906,0.52183
654,0,3.87005,-0.0231879,0.139359,0.514185
658,0,3.87045,-0.0275486,0.14041,0.508859
663,0,3.87198,-0.025072,0.13839,0.505258
667,0,3.87182,-0.0275927,0.138914,0.503479
672,0,3.87131,-0.0275944,0.137342,0.497624
676,0,3.87129,-0.0296677,0.137903,0.495533
682,0,3.87029,-0.0294026,0.139382,0.500289
686,0,3.87482,-0.0293682,0.140982,0.50473
690,0,3.87268,-0.0217704,0.140857,0.516122
694,0,3.87386,-0.0207771,0.140352,0.517686
698,0,3.8825,-0.0276922,0.141994,0.513695
704,0,3.87092,-0.0176348,0.136265,0.513092
713,0,3.86926,-0.0195012,0.13519,0.504988
717,0,3.87439,-0.0248236,0.133266,0.487209
723,0,3.87446,-0.0224521,0.131214,0.483716
735,0,3.8666,-0.040785,0.121173,0.426552
745,0,3.86496,-0.0513044,0.117897,0.403081
753,0,3.86731,-0.0299208,0.110446,0.409779
757,0,3.86532,-0.0524878,0.113063,0.385052
767,0,3.86754,-0.0664999,0.11412,0.369647
771,0,3.8674,-0.052216,0.111287,0.379106
775,0,3.86951,-0.0484011,0.110817,0.37994
782,0,3.87261,-0.0449498,0.106883,0.372678
787,0,3.8712,-0.04657,0.109036,0.375107
791,0,3.87425,-0.0439683,0.10383,0.360171
795,0,3.87678,-0.0434673,0.101741,0.354682
800,0,3.86803,-0.0479011,0.10244,0.352042
805,0,3.86784,-0.0553298,0.0997684,0.337293
809,0,3.87106,-0.0519898,0.0978202,0.334016
813,0,3.86577,-0.05928,0.0972239,0.325111
817,0,3.86547,-0.0599225,0.0918225,0.308922
821,0,3.86561,-0.062628,0.0925346,0.307396
825,0,3.8573,-0.0683217,0.0912203,0.298429
831,0,3.85507,-0.0717175,0.0883546,0.287509
836,0,3.85371,-0.0750248,0.0873463,0.276788
841,0,3.859,-0.0697425,0.0810318,0.266724
846,0,3.85066,-0.0841892,0.0772998,0.242824
851,0,3.84988,-0.081035,0.0788409,0.248497
857,0,3.84852,-0.0873622,0.0757668,0.236951
861,0,3.8488,-0.0852622,0.0735622,0.233312
865,0,3.84963,-0.0820215,0.0751757,0.238648
869,0,3.85051,-0.0793967,0.0714134,0.227243
883,0,3.84958,-0.0877968,0.0684551,0.214182
887,0,3.8476,-0.0883765,0.0668241,0.20907
891,0,3.85217,-0.0837428,0.0648352,0.204093
900,0,3.84046,-0.105122,0.0649527,0.190682
904,0,3.84703,-0.0915887,0.0639374,0.19577
910,0,3.84881,-0.0806014,0.0625759,0.196927
914,0,3.84606,-0.0894855,0.0616048,0.189949
918,0,3.85031,-0.0873041,0.0555782,0.170639
922,0,3.84565,-0.0929193,0.05616,0.171602
926,0,3.8713,-0.0695038,0.0445833,0.100297
930,0,3.87699,-0.10344,0.0422588,0.124094
934,0,3.88661,-0.0928597,0.0380672,0.113787
938,0,3.87129,-0.117425,0.03874,0.11045
943,0,3.9106,0.00440135,0.0306994,0.146211
947,0,3.87321,-0.116104,0.0373637,0.104092
951,0,3.875,-0.103049,0.038296,0.109313
955,0,3.88419,-0.0949678,0.036436,0.10611
960,0,3.91456,0.00250817,0.0292874,0.139446
964,0,3.87321,-0.110782,0.0349512,0.0972573
968,0,3.88884,-0.0971696,0.0326761,0.0946129
972,0,3.89115,-0.0994067,0.0328277,0.0945923
975,0,3.88393,-0.106196,0.0348109,0.0977961