File: calce_correlation_analysis/matrices/CALCE_CX2_35_cycle_feature_matrix.csv
cycle_number,rul,voltage,current,capacity,charge_capacity
6,740,3.819,-0.0324221,0.358296,0.999249
13,733,3.82148,-0.0326978,0.355481,0.991115
20,726,3.82213,-0.0329208,0.356787,0.989472
27,719,3.82291,-0.0305673,0.355295,0.99149
37,712,3.81816,-0.0308767,0.351126,0.98193
44,705,3.82098,-0.0342583,0.351976,0.972618
52,698,3.82429,-0.0314691,0.349783,0.977305
65,691,3.82265,-0.0334446,0.348465,0.970217
72,684,3.82233,-0.0341252,0.34704,0.966011
81,677,3.82256,-0.0344862,0.345643,0.962016
89,670,3.82321,-0.0342571,0.34696,0.961545
99,663,3.82729,-0.0363716,0.346325,0.955679
106,656,3.81922,-0.0327163,0.342071,0.955264
113,649,3.82406,-0.0339275,0.345547,0.95644
120,642,3.8231,-0.0338092,0.346891,0.958715
128,635,3.82261,-0.0350552,0.341358,0.948529
137,628,3.82635,-0.0359148,0.343573,0.946872
146,621,3.82485,-0.0309019,0.345472,0.965969
155,614,3.82511,-0.0310199,0.344073,0.959259
163,607,3.82237,-0.0357455,0.34206,0.944442
170,600,3.82302,-0.0358897,0.339313,0.93739
177,593,3.82509,-0.0345434,0.341374,0.943601
186,586,3.82456,-0.0336712,0.339202,0.94242
193,579,3.82623,-0.0323652,0.338477,0.942572
200,572,3.8251,-0.0345067,0.338506,0.936967
207,565,3.82276,-0.0370358,0.333721,0.922379
214,558,3.82169,-0.0370275,0.333651,0.920958
222,551,3.82448,-0.0364068,0.335046,0.923443
229,544,3.8246,-0.0348897,0.335666,0.92833
237,537,3.82168,-0.0375261,0.333688,0.921827
245,530,3.82398,-0.0374611,0.335,0.919927
252,523,3.82067,-0.0349063,0.328056,0.914783
260,516,3.82438,-0.0353375,0.332931,0.920897
267,509,3.82589,-0.0338337,0.332231,0.921923
275,502,3.82458,-0.0378251,0.328167,0.90465
284,495,3.82257,-0.0364943,0.328869,0.914774
292,488,3.826,-0.034463,0.329478,0.915158
300,481,3.8251,-0.0363346,0.331543,0.915506
307,474,3.82596,-0.0353462,0.331523,0.916059
315,467,3.82326,-0.0355236,0.328735,0.909207
322,460,3.82578,-0.0336706,0.330759,0.916513
329,453,3.82663,-0.0326989,0.330066,0.918591
336,446,3.82572,-0.0341532,0.329372,0.912816
343,439,3.8256,-0.0357366,0.327369,0.90357
350,432,3.82716,-0.0337767,0.325904,0.906405
358,425,3.82429,-0.0356162,0.33003,0.908792
365,418,3.82511,-0.0346261,0.329335,0.910597
372,411,3.82684,-0.0342186,0.326555,0.904708
379,404,3.82636,-0.0373142,0.329339,0.903458
386,397,3.82501,-0.0344297,0.327866,0.906289
401,390,3.82449,-0.0353109,0.323829,0.900107
412,383,3.82421,-0.0376863,0.320361,0.8851
421,376,3.82586,-0.0409486,0.325249,0.883966
428,369,3.8249,-0.0346677,0.320971,0.889814
435,362,3.82583,-0.0364635,0.323063,0.89008
442,355,3.82638,-0.0349006,0.32233,0.893314
449,348,3.82917,-0.0375439,0.321651,0.884876
456,341,3.82375,-0.0343963,0.318775,0.885812
464,334,3.82616,-0.0390859,0.320983,0.881425
471,327,3.82666,-0.0357299,0.319537,0.88422
479,320,3.82493,-0.036751,0.321627,0.885242
490,313,3.82429,-0.0393519,0.316795,0.869903
497,306,3.82594,-0.0380465,0.316092,0.870503
504,299,3.82703,-0.0381334,0.317428,0.873236
514,292,3.82751,-0.0358115,0.322337,0.890846
521,285,3.82604,-0.0350212,0.322306,0.891123
532,278,3.82714,-0.0411471,0.317551,0.868983
541,271,3.82309,-0.0391672,0.312629,0.859473
552,264,3.82565,-0.0383632,0.313271,0.862613
559,257,3.82617,-0.0363414,0.312516,0.865291
566,250,3.82547,-0.0367266,0.312489,0.865361
575,243,3.8239,-0.0363128,0.313918,0.872206
582,236,3.8228,-0.0387679,0.310487,0.856807
589,229,3.82392,-0.0400328,0.308442,0.849162
596,222,3.82275,-0.0400955,0.308397,0.847543
604,215,3.82407,-0.0390285,0.307734,0.849249
611,208,3.82316,-0.0411033,0.307006,0.842491
618,201,3.8217,-0.0426493,0.306356,0.837275
629,194,3.82303,-0.0416263,0.309253,0.846613
636,187,3.82426,-0.0388096,0.30632,0.845795
644,180,3.82208,-0.0413394,0.304301,0.838104
651,173,3.82133,-0.0420788,0.303604,0.832193
659,166,3.82117,-0.0432436,0.300847,0.824664
667,159,3.8217,-0.043011,0.300838,0.823839
674,152,3.82151,-0.0448947,0.300194,0.818394
681,145,3.82128,-0.0430312,0.2981,0.816388
688,138,3.82139,-0.0432485,0.297904,0.815756
701,131,3.82119,-0.0432858,0.299455,0.821231
709,124,3.82008,-0.0452131,0.298563,0.814791
716,117,3.82447,-0.0416833,0.297297,0.817507
723,110,3.82104,-0.0435367,0.297982,0.815097
730,103,3.82127,-0.0436877,0.296612,0.811087
737,96,3.82238,-0.042081,0.295854,0.811951
747,89,3.82035,-0.0428548,0.298008,0.817367
754,82,3.8233,-0.0432362,0.295288,0.808432
762,75,3.79386,-0.276577,0.390343,0.440762
769,68,3.82218,-0.041929,0.291742,0.803858
776,61,3.82343,-0.0418261,0.291737,0.803162
783,54,3.82125,-0.0441228,0.291081,0.79561
790,47,3.82127,-0.043728,0.292395,0.799429
797,40,3.82057,-0.0441575,0.289714,0.790901
804,33,3.81991,-0.0445472,0.289683,0.791523
811,26,3.82014,-0.0442324,0.289673,0.790856
822,19,3.82204,-0.0426151,0.287573,0.792718
829,12,3.82097,-0.0436837,0.28965,0.791188
836,5,3.82068,-0.0445811,0.289614,0.791637
843,0,3.82065,-0.0451499,0.286865,0.784056
851,0,3.81927,-0.045039,0.285525,0.780415
858,0,3.82043,-0.0431501,0.283329,0.777718
866,0,3.82211,-0.0404674,0.289566,0.800917
873,0,3.82141,-0.0442793,0.289647,0.791108
880,0,3.82315,-0.0428179,0.287536,0.78894
888,0,3.82034,-0.0432736,0.284736,0.784264
895,0,3.82166,-0.0434409,0.28337,0.77967
902,0,3.8206,-0.0458271,0.282786,0.772447
909,0,3.82154,-0.0460271,0.284123,0.775639
916,0,3.82288,-0.0415045,0.285468,0.788588
923,0,3.82214,-0.0449797,0.288294,0.786665
930,0,3.82285,-0.0415767,0.284069,0.781922
937,0,3.82185,-0.0435825,0.28338,0.778363
944,0,3.82279,-0.0422218,0.281272,0.776533
951,0,3.82026,-0.0438747,0.281987,0.773061
958,0,3.82275,-0.0422225,0.279851,0.770521
965,0,3.82148,-0.0418168,0.281863,0.777537
973,0,3.82229,-0.0420153,0.281255,0.775941
980,0,3.82299,-0.0418402,0.279865,0.770932
988,0,3.82233,-0.0425543,0.279508,0.770112
995,0,3.82025,-0.0446431,0.279173,0.76431
1002,0,3.82031,-0.0443899,0.277817,0.760288
1009,0,3.8202,-0.0445624,0.276436,0.757065
1016,0,3.82136,-0.0436468,0.274308,0.756883
1024,0,3.81846,-0.0444379,0.276427,0.758988
1031,0,3.81955,-0.0446682,0.273658,0.750661
1038,0,3.81936,-0.0452209,0.273649,0.750038
1046,0,3.81803,-0.0452629,0.272237,0.749115
1053,0,3.81846,-0.0455918,0.270857,0.742768
1060,0,3.81927,-0.0438854,0.26855,0.739404
1067,0,3.81704,-0.0457723,0.269451,0.735952
1075,0,3.82061,-0.0447274,0.272253,0.746201
1083,0,3.81784,-0.0441745,0.270102,0.74556
1093,0,3.81919,-0.0433674,0.268701,0.741297
1100,0,3.8181,-0.0460946,0.268074,0.732644
1107,0,3.81776,-0.046236,0.266675,0.730444
1114,0,3.81456,-0.0478971,0.267409,0.726348
1121,0,3.81661,-0.0463832,0.266652,0.728967
1128,0,3.81585,-0.0464996,0.265284,0.726714
1135,0,3.81587,-0.0487184,0.264637,0.72169
1144,0,3.81525,-0.0462942,0.266664,0.730953
1151,0,3.81583,-0.0463243,0.263894,0.723195
1159,0,3.81887,-0.0449829,0.263175,0.723581
1166,0,3.81786,-0.0448051,0.261752,0.720436
1173,0,3.81608,-0.0456427,0.258966,0.71023
1180,0,3.81616,-0.0493371,0.258352,0.70835
1187,0,3.81244,-0.0499309,0.259795,0.707364
1196,0,3.81526,-0.0423956,0.263774,0.730471
1205,0,3.82225,-0.0426413,0.270348,0.745924
1228,0,3.82115,-0.0445786,0.270142,0.741817
1235,0,3.82213,-0.0407043,0.27149,0.751934
1245,0,3.8196,-0.0486879,0.266084,0.721664
1255,0,3.81703,-0.0474061,0.261096,0.719111
1264,0,3.81327,-0.0493382,0.261836,0.710291
1275,0,3.82139,-0.0433264,0.265218,0.730641
1285,0,3.81852,-0.0379852,0.26024,0.731817
1295,0,3.81662,-0.0479426,0.259732,0.708326
1305,0,3.8158,-0.0486348,0.259769,0.706214
1317,0,3.81734,-0.0472953,0.263871,0.720797
1324,0,3.81796,-0.0447531,0.264544,0.724782
1335,0,3.81501,-0.0416764,0.256054,0.711273
1346,0,3.82068,-0.0450864,0.260359,0.713047
1358,0,3.81956,-0.0441224,0.256748,0.706973
1366,0,3.81582,-0.046075,0.254782,0.697282
1375,0,3.8155,-0.0444543,0.25296,0.701623
1386,0,3.81769,-0.0458157,0.257629,0.705187
1399,0,3.81768,-0.0505236,0.256302,0.69297
1410,0,3.81725,-0.0444127,0.252586,0.698341
1419,0,3.81645,-0.0479587,0.256881,0.699143
1427,0,3.81898,-0.0432795,0.258251,0.712058
1442,0,3.8123,-0.0492088,0.249875,0.682081
1453,0,3.825,-0.0856626,0.265213,0.652281
1465,0,3.81195,-0.0513597,0.25065,0.678697
1480,0,3.80899,-0.0457753,0.245629,0.678921
1492,0,3.81221,-0.0510469,0.249283,0.672035
1505,0,3.81178,-0.0434232,0.246325,0.686133
1529,0,3.80718,-0.0556173,0.241639,0.648305
1539,0,3.80613,-0.0602861,0.243166,0.642863
1551,0,3.8092,-0.0555725,0.244465,0.65633
1577,0,3.8027,-0.0518289,0.229522,0.631608
1592,0,3.80698,-0.0586844,0.233204,0.623812
1610,0,3.80289,-0.0534248,0.224978,0.614079
1623,0,3.80015,-0.0656861,0.224424,0.599086
1636,0,3.80369,-0.0579212,0.231756,0.618488
1653,0,3.80098,-0.0544372,0.221061,0.602909
1663,0,3.79538,-0.0657853,0.215662,0.577331
1681,0,3.79086,-0.0857194,0.210384,0.526543
1694,0,3.79121,-0.0712724,0.214338,0.552537
1711,0,3.78326,-0.0761413,0.196792,0.509409
1718,0,3.78088,-0.0802236,0.187702,0.48598
1725,0,3.78485,-0.0765932,0.18706,0.486569
1732,0,3.77944,-0.0857664,0.186074,0.475351
1740,0,3.78244,-0.0802009,0.178565,0.467248
1749,0,3.77299,-0.0837452,0.176449,0.449129
1756,0,3.76715,-0.0951638,0.174822,0.4366
1763,0,3.76952,-0.0904057,0.170706,0.433367
1771,0,3.77387,-0.090243,0.159542,0.406263
1778,0,3.77044,-0.0955134,0.156134,0.395079
1793,0,3.76999,-0.0908216,0.161362,0.404433
1800,0,3.77124,-0.0917745,0.16133,0.40077
1807,0,3.77275,-0.0915337,0.156833,0.396888
1814,0,3.76394,-0.0971295,0.153891,0.385854