File: calce_correlation_analysis/matrices/CALCE_CS2_37_cycle_feature_matrix.csv
cycle_number,rul,voltage,current,capacity,charge_capacity
7,539,3.85658,-0.0101508,0.192307,0.737148
11,535,3.86177,-0.0154893,0.193778,0.727541
15,531,3.86018,-0.00959342,0.191726,0.734244
20,527,3.85936,-0.00926907,0.191683,0.73346
24,523,3.8612,-0.00781943,0.189729,0.730936
28,519,3.86081,-0.00802433,0.186671,0.720689
32,515,3.86601,-0.0136583,0.188718,0.710744
36,511,3.86172,-0.0121854,0.186611,0.707754
40,507,3.86273,-0.0109676,0.187621,0.713382
44,503,3.86376,-0.010942,0.184596,0.702521
48,499,3.86428,-0.00931325,0.185621,0.709637
65,495,3.86173,-0.0140657,0.185662,0.701278
69,491,3.86628,-0.0131727,0.183651,0.695917
73,487,3.86508,-0.0130314,0.182128,0.691187
77,483,3.86597,-0.0111737,0.181604,0.692067
82,479,3.86439,-0.0110487,0.181559,0.692723
86,475,3.86311,-0.0147544,0.182529,0.687403
91,471,3.86496,-0.0113651,0.180038,0.686966
100,467,3.86367,-0.0133173,0.180536,0.683649
105,463,3.86683,-0.0115977,0.178555,0.679793
109,459,3.86535,-0.0131923,0.180548,0.683326
114,455,3.86545,-0.0134291,0.177529,0.672724
118,451,3.86501,-0.00693245,0.1755,0.679292
123,447,3.86733,-0.0217238,0.181572,0.66678
128,443,3.8674,-0.00994272,0.178024,0.680218
132,439,3.86435,-0.0116318,0.179967,0.683068
136,435,3.86412,-0.0113008,0.179987,0.683636
140,431,3.86421,-0.00844324,0.177467,0.68297
148,427,3.8695,-0.0168105,0.180019,0.673613
154,423,3.86645,-0.0158313,0.178583,0.667121
158,419,3.86674,-0.0130535,0.179054,0.675577
162,415,3.86413,-0.0178444,0.179041,0.665585
166,411,3.86494,-0.0148822,0.179534,0.673683
170,407,3.86559,-0.0163953,0.177044,0.661222
175,403,3.86447,-0.0147579,0.179504,0.67285
179,399,3.86522,-0.0131066,0.179015,0.674988
183,395,3.86488,-0.0131754,0.179034,0.675551
187,391,3.86271,-0.0149948,0.180996,0.678139
193,387,3.86411,-0.0154608,0.176531,0.663292
197,383,3.86232,-0.0152052,0.17651,0.66475
202,379,3.86218,-0.0170538,0.178507,0.66697
207,375,3.86314,-0.0185026,0.180534,0.670057
211,371,3.86229,-0.0187053,0.179016,0.665343
215,367,3.86335,-0.0145887,0.179501,0.673517
220,363,3.8632,-0.0144833,0.179505,0.673561
224,359,3.86305,-0.0131811,0.179003,0.675575
228,355,3.86366,-0.0117083,0.178502,0.67714
232,351,3.86349,-0.0118205,0.178507,0.677261
236,347,3.86323,-0.0118636,0.178517,0.6773
240,343,3.86351,-0.0164198,0.178537,0.66652
244,339,3.86682,-0.0150821,0.178049,0.666775
248,335,3.87016,-0.0148816,0.176559,0.663466
252,331,3.86349,-0.013813,0.177507,0.67076
256,327,3.86286,-0.0137935,0.174515,0.660961
260,323,3.86204,-0.0151242,0.177971,0.668193
264,319,3.86277,-0.0155016,0.174986,0.659299
268,315,3.86086,-0.00874716,0.172942,0.665966
273,311,3.71946,-0.87969,0.441217,0.0215388
278,307,3.85987,-0.015493,0.174952,0.659763
283,303,3.86258,-0.0170844,0.175505,0.657884
290,299,3.8637,-0.0151726,0.173506,0.654082
294,295,3.86535,-0.0134428,0.174491,0.660065
299,291,3.86139,-0.0183499,0.174445,0.649308
303,287,3.86358,-0.0151499,0.174946,0.657525
307,283,3.86449,-0.0134369,0.174448,0.659354
311,279,3.86402,-0.0133247,0.174443,0.659575
315,275,3.86503,-0.0117767,0.173946,0.660729
320,271,3.86295,-0.0176985,0.174433,0.647714
324,267,3.86628,-0.0136303,0.17295,0.653411
328,263,3.86336,-0.0185383,0.172938,0.642971
332,259,3.87281,-0.0220212,0.17556,0.645068
338,255,3.86472,-0.0190413,0.173014,0.645081
344,251,3.86412,-0.0148832,0.173443,0.653631
348,247,3.86434,-0.0151385,0.173457,0.652879
352,243,3.8639,-0.0151656,0.173454,0.652936
356,239,3.86482,-0.0132117,0.172928,0.653457
360,235,3.86158,-0.0147019,0.170412,0.643474
364,231,3.86357,-0.0216643,0.172495,0.634903
369,227,3.86209,-0.0213738,0.172441,0.634056
373,223,3.86595,-0.0172248,0.17094,0.639433
377,219,3.86291,-0.0198432,0.170426,0.630578
381,215,3.86442,-0.0184652,0.171429,0.637468
385,211,3.8678,-0.0221082,0.172514,0.633976
389,207,3.86352,-0.0225621,0.170963,0.629255
393,203,3.86305,-0.0224071,0.172444,0.634058
397,199,3.86383,-0.019143,0.17141,0.637354
401,195,3.86533,-0.0151338,0.1704,0.640287
405,191,3.86521,-0.0152379,0.170409,0.640736
409,187,3.86493,-0.0153662,0.170411,0.641056
413,183,3.86348,-0.0211169,0.168917,0.625029
417,179,3.86506,-0.0168246,0.169393,0.633673
421,175,3.8622,-0.0228865,0.169401,0.623065
425,171,3.86212,-0.0141262,0.166813,0.631097
429,167,3.8624,-0.0229535,0.169365,0.621974
433,163,3.86258,-0.0220075,0.16944,0.624399
437,159,3.86511,-0.0231781,0.167958,0.618473
441,155,3.86492,-0.0282656,0.171014,0.617793
445,151,3.86536,-0.0192471,0.168415,0.627009
450,147,3.86441,-0.0173311,0.166373,0.621906
454,143,3.86108,-0.0192759,0.168312,0.625209
458,139,3.86482,-0.017882,0.167866,0.627069
462,135,3.86252,-0.0195204,0.168335,0.625593
466,131,3.86613,-0.0212732,0.168922,0.623941
470,127,3.86628,-0.0179373,0.166361,0.62164
474,123,3.8664,-0.0231694,0.169405,0.621391
478,119,3.86564,-0.0197042,0.16685,0.619401
482,115,3.86567,-0.0214357,0.168872,0.62263
486,111,3.86512,-0.0177577,0.167838,0.627045
490,107,3.86587,-0.0158886,0.167342,0.628968
494,103,3.86661,-0.0143813,0.166822,0.629434
498,99,3.86654,-0.014232,0.166818,0.629404
502,95,3.86629,-0.0178674,0.167858,0.626889
506,91,3.86579,-0.0196933,0.166849,0.619223
510,87,3.86383,-0.0192471,0.168312,0.624551
515,83,3.86412,-0.0181379,0.16625,0.62107
519,79,3.86649,-0.0162421,0.165803,0.62231
524,75,3.86413,-0.0197332,0.165263,0.6129
528,71,3.86444,-0.0160124,0.162781,0.613391
532,67,3.86599,-0.0178819,0.163276,0.609423
536,63,3.86742,-0.0157436,0.164299,0.616637
540,59,3.86822,-0.0138736,0.163798,0.618109
544,55,3.86733,-0.0156818,0.164301,0.617056
548,51,3.86729,-0.0160386,0.164293,0.616713
552,47,3.8681,-0.0158722,0.164305,0.616542
556,43,3.86501,-0.0202561,0.163748,0.606796
560,39,3.86568,-0.0198167,0.165263,0.612274
565,35,3.86742,-0.018078,0.16175,0.603222
570,31,3.86259,-0.0163553,0.161168,0.606067
575,27,3.8719,-0.0267945,0.162916,0.5886
584,23,3.86712,-0.0235178,0.161764,0.591807
588,19,3.86861,-0.0180783,0.160253,0.59761
592,15,3.86821,-0.0161457,0.159731,0.599328
596,11,3.86799,-0.0181633,0.160227,0.597351
604,7,3.86329,-0.0150255,0.154647,0.586955
609,3,3.86751,-0.0331587,0.161399,0.570573
618,0,3.86724,-0.0239828,0.15522,0.570798
624,0,3.86396,-0.0313697,0.157279,0.564879
628,0,3.87073,-0.0309325,0.157349,0.562871
633,0,3.86437,-0.0274831,0.153169,0.556656
638,0,3.86862,-0.0231154,0.153646,0.565314
642,0,3.86601,-0.0268075,0.153135,0.554803
648,0,3.86961,-0.0253015,0.151162,0.551777
653,0,3.87035,-0.0226019,0.152132,0.557821
657,0,3.87037,-0.0206946,0.151616,0.560075
661,0,3.8676,-0.022344,0.153557,0.562313
665,0,3.87019,-0.0202413,0.151598,0.559911
669,0,3.87033,-0.0248967,0.152661,0.55586
673,0,3.86904,-0.0257091,0.149602,0.544879
677,0,3.86902,-0.0309207,0.152689,0.543714
682,0,3.86904,-0.0268209,0.148603,0.536906
686,0,3.86901,-0.0276335,0.150099,0.541748
691,0,3.86808,-0.0274497,0.147058,0.531077
695,0,3.86983,-0.0240694,0.148056,0.537268
700,0,3.87085,-0.0260348,0.14505,0.526793
706,0,3.8714,-0.0235512,0.146042,0.534724
710,0,3.86848,-0.0255757,0.14799,0.537252
714,0,3.86981,-0.0229632,0.147461,0.538178
719,0,3.86761,-0.0346452,0.148632,0.524442
723,0,3.86747,-0.0311409,0.144381,0.516383
727,0,3.87035,-0.0318452,0.145098,0.514366
731,0,3.86657,-0.0306605,0.142934,0.511137
735,0,3.87063,-0.0274399,0.140437,0.508925
739,0,3.86455,-0.0268259,0.140193,0.510727
743,0,3.86785,-0.0319139,0.139768,0.500005
747,0,3.8688,-0.0248514,0.139835,0.510986
751,0,3.87173,-0.0266262,0.138923,0.503114
755,0,3.86874,-0.0287848,0.142375,0.511199
760,0,3.87001,-0.0261622,0.141843,0.512245
764,0,3.86956,-0.0257715,0.141843,0.512016
769,0,3.87352,-0.0296675,0.142438,0.509969
773,0,3.86766,-0.0277417,0.138802,0.502351
777,0,3.86887,-0.0304314,0.137842,0.494446
783,0,3.87199,-0.0290021,0.135861,0.490515
787,0,3.87553,-0.0308048,0.137938,0.491864
796,0,3.86282,-0.017019,0.133115,0.504158
810,0,3.86682,-0.0208305,0.122175,0.458097
814,0,3.86855,-0.0436705,0.123087,0.430278
821,0,3.8679,-0.042412,0.119276,0.420592
825,0,3.86536,-0.0460971,0.118143,0.412258
832,0,3.86337,-0.0581523,0.118784,0.397028
836,0,3.87253,-0.0429842,0.116636,0.407535
840,0,3.86923,-0.0456088,0.118647,0.409152
847,0,3.86788,-0.038351,0.119376,0.421397
851,0,3.86949,-0.0448331,0.117319,0.40579
855,0,3.87309,-0.0416851,0.117024,0.406894
859,0,3.87007,-0.0444567,0.11512,0.39959
863,0,3.87247,-0.0450781,0.113674,0.393412
868,0,3.87005,-0.0440421,0.110317,0.383455
872,0,3.86892,-0.0458559,0.108575,0.375588
876,0,3.86993,-0.0487426,0.109301,0.372907
880,0,3.86985,-0.0478973,0.105504,0.363148
884,0,3.86796,-0.0549946,0.103416,0.349079
888,0,3.86483,-0.0552092,0.103394,0.348952
892,0,3.86395,-0.0566403,0.10019,0.337272
897,0,3.86609,-0.0533122,0.0962271,0.329351
901,0,3.85981,-0.0635132,0.0962025,0.316885
906,0,3.86897,-0.0493889,0.092708,0.317071
914,0,3.84851,-0.0795838,0.0893134,0.283247
918,0,3.8555,-0.0721913,0.0883187,0.2853
922,0,3.85069,-0.0753206,0.0850885,0.276204
926,0,3.84881,-0.0812023,0.0840885,0.266365
930,0,3.85533,-0.0769402,0.0837606,0.26754
934,0,3.85021,-0.0740121,0.0814138,0.265031
938,0,3.84417,-0.0838239,0.0809558,0.254106
942,0,3.84557,-0.0803795,0.0788048,0.248358
949,0,3.84218,-0.0825941,0.0788132,0.249404
953,0,3.84487,-0.0822066,0.0751836,0.23809
957,0,3.84785,-0.0836008,0.0753098,0.238073
961,0,3.84627,-0.0826092,0.0752362,0.236377
966,0,3.83851,-0.09759,0.0731841,0.219101
970,0,3.84406,-0.0876219,0.0721037,0.223779
975,0,3.85095,-0.0717555,0.0689548,0.224049
979,0,3.84332,-0.087349,0.0684303,0.214327
983,0,3.84198,-0.0919635,0.0652491,0.19967
987,0,3.84338,-0.0862933,0.0631388,0.196131
995,0,3.86524,-0.093544,0.0488783,0.146251
1001,0,3.86791,-0.0986081,0.0435196,0.128809
1005,0,3.86723,-0.102325,0.0419199,0.122335
1009,0,3.86948,-0.0924721,0.0397355,0.116876
1013,0,3.87067,-0.108333,0.0406293,0.115968
1017,0,3.86679,-0.100935,0.0419624,0.121318
1021,0,3.88431,-0.0841726,0.0376002,0.116084
1025,0,3.87113,-0.101434,0.038289,0.111162
1029,0,3.86997,-0.0982939,0.0382775,0.109025
1033,0,3.88293,-0.0878609,0.0359174,0.107552
1037,0,3.87024,-0.102147,0.0382973,0.109718
1042,0,3.8819,-0.084873,0.0375129,0.113115