File: calce_correlation_analysis/matrices/CALCE_CX2_34_cycle_feature_matrix.csv
cycle_number,rul,voltage,current,capacity,charge_capacity
8,535,3.82256,-0.058793,0.250489,0.87313
16,529,3.82536,-0.0599847,0.248105,0.865249
22,523,3.82332,-0.0622078,0.246905,0.861669
29,517,3.82387,-0.0572134,0.248062,0.864472
35,511,3.82393,-0.0574583,0.247823,0.86362
41,505,3.82603,-0.0596135,0.242762,0.850824
61,499,3.82149,-0.063275,0.246546,0.853924
67,493,3.82384,-0.0635915,0.243282,0.841439
73,487,3.82235,-0.064877,0.241056,0.834059
79,481,3.82183,-0.0656004,0.241936,0.831127
85,475,3.82392,-0.0641272,0.238997,0.827009
91,469,3.82224,-0.0681649,0.238075,0.816858
99,463,3.82324,-0.0608382,0.236578,0.822299
111,457,3.82354,-0.0666695,0.244537,0.839293
117,451,3.82724,-0.0692921,0.242643,0.826913
124,445,3.82822,-0.0663854,0.240291,0.82224
130,439,3.82491,-0.0644274,0.239938,0.82919
136,433,3.8259,-0.0609773,0.23853,0.827077
145,427,3.82649,-0.0704672,0.237558,0.810609
158,421,3.82774,-0.0658633,0.241859,0.828448
165,415,3.8236,-0.0658951,0.241193,0.832111
171,409,3.8236,-0.0625798,0.240511,0.830218
178,403,3.82431,-0.0650485,0.237588,0.815746
186,397,3.82439,-0.0659051,0.235224,0.808926
194,391,3.82214,-0.0665748,0.233443,0.803191
206,385,3.82287,-0.0613092,0.243784,0.835173
212,379,3.82363,-0.0618529,0.240738,0.832352
218,373,3.82256,-0.0641421,0.241202,0.828102
227,367,3.82135,-0.0656554,0.235066,0.810378
233,361,3.82568,-0.0639285,0.23394,0.811272
242,355,3.8241,-0.068784,0.232424,0.793767
248,349,3.82044,-0.0671333,0.230299,0.795514
258,343,3.82422,-0.0688434,0.23363,0.797159
264,337,3.82525,-0.066746,0.232842,0.799838
270,331,3.823,-0.0695006,0.22965,0.785339
277,325,3.82282,-0.0697773,0.228021,0.778154
284,319,3.82604,-0.0645296,0.224466,0.778509
291,313,3.82304,-0.0681774,0.225471,0.774157
297,307,3.82648,-0.0676985,0.227713,0.779151
313,301,3.82527,-0.0610997,0.236555,0.818789
319,295,3.82335,-0.0650292,0.237541,0.812611
333,289,3.82954,-0.0680352,0.231971,0.792159
339,283,3.82576,-0.0645616,0.232317,0.800825
346,277,3.82678,-0.0635641,0.230814,0.79634
356,271,3.82402,-0.0633309,0.228459,0.79019
367,265,3.81807,-0.335112,0.305835,0.495921
376,259,3.82545,-0.0707742,0.226185,0.771278
384,253,3.82608,-0.0701327,0.223882,0.765033
391,247,3.82588,-0.0731708,0.224766,0.766264
397,241,3.82666,-0.0696034,0.224245,0.764942
403,235,3.8228,-0.0689085,0.229204,0.771193
409,229,3.82405,-0.0709663,0.228069,0.773486
415,223,3.82699,-0.0669304,0.225141,0.772469
422,217,3.82515,-0.0667049,0.222908,0.768054
428,211,3.82567,-0.0698862,0.225877,0.76804
434,205,3.8281,-0.0716432,0.224789,0.760613
440,199,3.82436,-0.0723362,0.222259,0.754326
447,193,3.82585,-0.0722061,0.221549,0.75466
453,187,3.8254,-0.0712503,0.223784,0.759634
459,181,3.82556,-0.0695451,0.224243,0.7623
465,175,3.82668,-0.0633953,0.220249,0.763841
475,169,3.82595,-0.0727285,0.220574,0.74738
481,163,3.82664,-0.0724237,0.220237,0.747138
487,157,3.82639,-0.0707737,0.218573,0.743213
493,151,3.82256,-0.0719429,0.225178,0.754043
500,145,3.82611,-0.0703169,0.222034,0.755343
507,139,3.82587,-0.0681949,0.221517,0.758495
514,133,3.82755,-0.0684041,0.221216,0.75707
520,127,3.82712,-0.0691923,0.223658,0.762432
526,121,3.82596,-0.0698028,0.221838,0.755235
532,115,3.8271,-0.0686184,0.221053,0.755953
538,109,3.82734,-0.068247,0.219512,0.750706
549,103,3.82818,-0.0721133,0.217619,0.742276
557,97,3.8257,-0.0742295,0.215703,0.732705
564,91,3.82562,-0.0737157,0.214265,0.728722
575,85,3.82711,-0.0740022,0.215952,0.732605
581,79,3.83049,-0.0690243,0.212928,0.732297
587,73,3.82725,-0.0724126,0.214953,0.727717
595,67,3.82708,-0.0731114,0.216582,0.733874
601,61,3.82543,-0.0739039,0.216969,0.731909
607,55,3.82938,-0.0694988,0.211525,0.725694
614,49,3.82736,-0.0743261,0.212234,0.720016
620,43,3.82589,-0.0776371,0.211112,0.711242
626,37,3.82643,-0.0775864,0.209423,0.705185
632,31,3.82853,-0.0780306,0.208223,0.704811
638,25,3.82651,-0.0770425,0.208874,0.704579
644,19,3.82841,-0.077875,0.210988,0.711909
653,13,3.82678,-0.0780505,0.20954,0.705795
659,7,3.82924,-0.0764738,0.206061,0.701594
665,1,3.82651,-0.0785231,0.206938,0.698546
674,0,3.82686,-0.078424,0.209202,0.703318
681,0,3.82818,-0.0764009,0.208216,0.70562
687,0,3.82881,-0.079084,0.203304,0.691038
695,0,3.82863,-0.0769378,0.204656,0.695903
701,0,3.82968,-0.0769447,0.203856,0.693607
709,0,3.83006,-0.0755078,0.204,0.690179
715,0,3.82825,-0.0799346,0.203167,0.68326
721,0,3.82837,-0.0777626,0.201566,0.679914
727,0,3.82589,-0.0812032,0.201719,0.678112
733,0,3.82604,-0.0813906,0.20014,0.670716
740,0,3.8263,-0.0806601,0.199535,0.670968
746,0,3.82656,-0.0818737,0.198246,0.664609
753,0,3.82827,-0.0797255,0.195936,0.660851
759,0,3.88084,0.0178189,0.173814,0.706379
765,0,3.82765,-0.0847314,0.201836,0.67876
772,0,3.82721,-0.0846095,0.198888,0.669857
778,0,3.82633,-0.0806192,0.198016,0.664841
784,0,3.82798,-0.0801197,0.196983,0.663797
790,0,3.82777,-0.0797264,0.19712,0.666376
796,0,3.82818,-0.0808802,0.195272,0.660433
803,0,3.82537,-0.0857855,0.196934,0.655197
809,0,3.82838,-0.0781904,0.196969,0.666481
816,0,3.82747,-0.077514,0.197138,0.668554
822,0,3.82721,-0.0807705,0.195809,0.659574
829,0,3.82586,-0.0846673,0.194477,0.650693
835,0,3.8256,-0.0833282,0.194478,0.649885
841,0,3.82523,-0.0838024,0.194406,0.649881
847,0,3.82778,-0.0816172,0.191801,0.645739
853,0,3.82733,-0.0875993,0.193106,0.640742
859,0,3.82713,-0.0808907,0.193744,0.652752
865,0,3.82829,-0.0837687,0.193932,0.649402
871,0,3.82806,-0.0843856,0.192675,0.643243
877,0,3.8283,-0.0815112,0.191503,0.645412
883,0,3.82596,-0.0884813,0.191854,0.643494
890,0,3.82721,-0.0823332,0.188859,0.63862
896,0,3.82673,-0.0818287,0.18986,0.637586
902,0,3.82365,-0.0906654,0.19022,0.630228
911,0,3.82609,-0.0829981,0.190973,0.639925
917,0,3.82415,-0.0844566,0.195392,0.643459
923,0,3.82811,-0.0883607,0.190172,0.632739
929,0,3.82455,-0.0882076,0.190636,0.632297
935,0,3.82481,-0.0859817,0.190602,0.635117
941,0,3.82735,-0.0839472,0.188319,0.628173
947,0,3.82591,-0.0873706,0.186364,0.62205
953,0,3.82386,-0.0931853,0.187,0.615854
960,0,3.82776,-0.0843067,0.185685,0.62461
966,0,3.82422,-0.0910374,0.186868,0.618493
972,0,3.82781,-0.0861538,0.184469,0.617328
978,0,3.82365,-0.0880389,0.185173,0.613393
984,0,3.82282,-0.0882796,0.184794,0.613049
995,0,3.82644,-0.0807914,0.185145,0.62097
1002,0,3.82853,-0.0830275,0.183179,0.616006
1008,0,3.82387,-0.0890599,0.183358,0.604371
1014,0,3.82433,-0.0880372,0.179719,0.59821
1020,0,3.82392,-0.0882776,0.180565,0.600729
1026,0,3.82536,-0.0889284,0.178204,0.594179
1032,0,3.8229,-0.089678,0.177019,0.58719
1039,0,3.8257,-0.089375,0.17498,0.587291
1045,0,3.82382,-0.0857838,0.184068,0.612318
1051,0,3.82641,-0.0838551,0.181626,0.609292
1057,0,3.8242,-0.0905264,0.181697,0.604585
1063,0,3.82604,-0.0867909,0.177027,0.596322
1069,0,3.82712,-0.0887875,0.174996,0.593668
1075,0,3.82612,-0.0890279,0.174312,0.586294
1081,0,3.82377,-0.0901662,0.176112,0.586676
1087,0,3.82548,-0.0878063,0.173784,0.581742
1094,0,3.8282,-0.0860557,0.174755,0.588949
1101,0,3.82606,-0.0874548,0.17393,0.581102
1107,0,3.82834,-0.0889553,0.170603,0.573689
1127,0,3.8267,-0.0928405,0.174729,0.572423
1134,0,3.82606,-0.0930649,0.168618,0.561852
1140,0,3.8268,-0.0871391,0.165812,0.552463
1146,0,3.82434,-0.0949736,0.16676,0.547478
1152,0,3.82253,-0.0974178,0.164474,0.537565
1158,0,3.82556,-0.0929481,0.162797,0.534585
1164,0,3.82632,-0.0936856,0.162076,0.535173
1178,0,3.82667,-0.0837151,0.169643,0.570778
1184,0,3.82523,-0.087859,0.166147,0.554107
1192,0,3.82561,-0.0886232,0.16428,0.547541
1198,0,3.82441,-0.0905913,0.162236,0.540987
1204,0,3.82509,-0.0970503,0.160734,0.534668
1210,0,3.82442,-0.0976547,0.159645,0.526481
1217,0,3.82361,-0.0981531,0.158571,0.527031
1223,0,3.82225,-0.101527,0.162038,0.523424
1229,0,3.82643,-0.0973971,0.158176,0.521031
1235,0,3.8246,-0.0942617,0.158404,0.522853
1245,0,3.82761,-0.0907219,0.157583,0.526397
1251,0,3.82323,-0.0989062,0.157966,0.519139
1257,0,3.82237,-0.0972884,0.157182,0.515366
1263,0,3.8204,-0.10151,0.158145,0.512823
1270,0,3.82208,-0.0973571,0.157282,0.515377
1276,0,3.82335,-0.0935417,0.156459,0.517451
1282,0,3.82661,-0.0933992,0.15512,0.517397
1291,0,3.82401,-0.0919164,0.157274,0.529579
1297,0,3.8283,-0.0868966,0.154884,0.521678
1303,0,3.82338,-0.0969452,0.154967,0.508903
1309,0,3.82306,-0.0963945,0.153984,0.509019
1315,0,3.82383,-0.0947189,0.152621,0.50414
1322,0,3.82126,-0.100339,0.153759,0.500529
1328,0,3.82663,-0.0923828,0.14957,0.49966
1335,0,3.82384,-0.099523,0.155475,0.511562
1351,0,3.82375,-0.098091,0.162397,0.524927
1357,0,3.82908,-0.0872601,0.162363,0.545133
1363,0,3.83017,-0.0818758,0.16263,0.549773
1382,0,3.82712,-0.0817313,0.156001,0.53809
1392,0,3.82554,-0.0892054,0.160892,0.535778
1399,0,3.83052,-0.081558,0.15886,0.538769
1405,0,3.83046,-0.0804069,0.15872,0.537258
1418,0,3.8245,-0.0790961,0.147455,0.507421
1427,0,3.82288,-0.0802641,0.146185,0.500195
1433,0,3.82414,-0.102486,0.149833,0.483956
1442,0,3.82017,-0.104083,0.148046,0.476221
1463,0,3.83285,-0.139023,0.16071,0.477067
1478,0,3.83138,-0.0789704,0.140491,0.49212
1484,0,3.82391,-0.0956046,0.141989,0.469632
1497,0,3.82721,-0.0820849,0.137253,0.473504
1519,0,3.82847,-0.0807116,0.138361,0.478765
1526,0,3.82364,-0.101775,0.1414,0.45844
1538,0,3.82843,-0.0802468,0.131482,0.458491
1548,0,3.82567,-0.0841333,0.131024,0.450813
1564,0,3.82223,-0.0914118,0.137127,0.463813
1573,0,3.82352,-0.0936407,0.133536,0.44433
1592,0,3.82139,-0.0848246,0.134081,0.456544
1604,0,3.8199,-0.100143,0.132101,0.433996
1618,0,3.81745,-0.10696,0.126508,0.408838
1631,0,3.82306,-0.0993562,0.127865,0.420247
1639,0,3.82501,-0.0820084,0.124335,0.430769
1648,0,3.82392,-0.0913109,0.124376,0.418403
1657,0,3.82033,-0.096611,0.125295,0.415021
1668,0,3.82584,-0.0897395,0.128933,0.43142
1674,0,3.82442,-0.0887232,0.129036,0.4323
1680,0,3.82492,-0.0885709,0.129049,0.432238
1686,0,3.8202,-0.0960471,0.119164,0.393827
1712,0,3.81673,-0.102117,0.115405,0.377582
1718,0,3.8173,-0.0976725,0.11732,0.384722
1724,0,3.82045,-0.095019,0.116099,0.388901
1730,0,3.81775,-0.0953844,0.116938,0.388926
1736,0,3.81761,-0.0972735,0.103485,0.34747