File: calce_correlation_analysis/matrices/CALCE_CS2_35_cycle_feature_matrix.csv
cycle_number,rul,voltage,current,capacity,charge_capacity
7,519,3.8574,-0.00857841,0.19179,0.739076
11,515,3.86165,-0.0155904,0.19378,0.727882
15,511,3.85909,-0.0102479,0.192243,0.733216
19,507,3.85835,-0.0101472,0.19221,0.732347
23,503,3.86026,-0.00887724,0.190264,0.729648
27,499,3.85754,-0.00578312,0.187651,0.727367
31,495,3.86231,-0.0113941,0.18611,0.709664
35,491,3.86443,-0.00855269,0.183638,0.708497
39,487,3.86674,-0.0145414,0.187168,0.704007
43,483,3.86643,-0.0100273,0.182606,0.699731
47,479,3.86599,-0.00989613,0.184142,0.704421
64,475,3.85973,-0.00979807,0.184091,0.706542
68,471,3.86142,-0.0132574,0.183564,0.696937
72,467,3.86419,-0.0134533,0.182068,0.6909
76,463,3.86594,-0.0147229,0.182563,0.687324
80,459,3.86613,-0.0118462,0.18006,0.686464
84,455,3.8647,-0.0132496,0.180525,0.684026
88,451,3.86598,-0.0124219,0.179054,0.679409
92,447,3.86589,-0.0135701,0.179012,0.678247
101,443,3.86536,-0.0155822,0.181568,0.679305
111,439,3.86243,-0.0142452,0.182618,0.689725
115,435,3.86158,-0.0125928,0.183598,0.695743
119,431,3.86154,-0.0158136,0.181551,0.681476
124,427,3.86169,-0.0153939,0.179505,0.677033
130,423,3.86388,-0.0136087,0.1805,0.682019
134,419,3.8626,-0.0140679,0.181016,0.681074
138,415,3.86539,-0.0113155,0.178553,0.679825
142,411,3.86534,-0.0109564,0.178542,0.679217
147,407,3.86582,-0.0159474,0.177037,0.663796
151,403,3.86701,-0.0176405,0.17904,0.664695
159,399,3.86446,-0.0107495,0.173425,0.66623
163,395,3.86386,-0.0190061,0.177468,0.660645
169,391,3.86476,-0.0139143,0.174418,0.661994
173,387,3.86337,-0.0144221,0.177956,0.669526
180,383,3.86329,-0.0145953,0.177986,0.669835
184,379,3.86446,-0.0131201,0.177506,0.671311
188,375,3.86472,-0.0116033,0.177004,0.672784
192,371,3.86437,-0.0115117,0.177029,0.673152
196,367,3.86093,-0.00871412,0.174449,0.671753
206,363,3.86315,-0.0191958,0.184151,0.685285
210,359,3.86087,-0.0143755,0.182644,0.690601
214,355,3.86072,-0.0131213,0.182115,0.691305
218,351,3.85974,-0.0129053,0.182084,0.690224
223,347,3.85595,-0.0110718,0.180002,0.687171
227,343,3.86012,-0.015879,0.17855,0.671364
231,339,3.85701,-0.0158526,0.178489,0.671821
236,335,3.86509,-0.0177951,0.179086,0.666733
241,331,3.863,-0.0178606,0.176034,0.657998
245,327,3.8612,-0.0137094,0.175953,0.667457
249,323,3.86086,-0.0208309,0.176457,0.654362
255,319,3.87128,-0.0260351,0.178141,0.648964
259,315,3.86269,-0.0160864,0.17701,0.663857
263,311,3.86211,-0.0162404,0.177006,0.664059
267,307,3.8619,-0.0162857,0.176995,0.663524
271,303,3.86268,-0.0145752,0.176469,0.664139
275,299,3.86145,-0.0206659,0.174944,0.648888
279,295,3.86247,-0.0182089,0.175989,0.656086
283,291,3.86299,-0.0209764,0.173473,0.643779
288,287,3.85908,-0.0156961,0.171856,0.649805
292,283,3.86013,-0.0235659,0.174475,0.640197
297,279,3.86457,-0.019356,0.171453,0.639278
301,275,3.86258,-0.0209567,0.174935,0.647121
307,271,3.86618,-0.0218392,0.174037,0.640977
311,267,3.86097,-0.0199887,0.174941,0.648223
315,263,3.86299,-0.0168158,0.173939,0.651122
319,259,3.86285,-0.016838,0.173945,0.651509
323,255,3.86241,-0.0170241,0.173966,0.651784
327,251,3.8623,-0.0201607,0.17195,0.637125
332,247,3.85776,-0.0154535,0.170368,0.644734
336,243,3.86138,-0.0204252,0.17044,0.632539
341,239,3.8599,-0.02418,0.172937,0.63365
347,235,3.85698,-0.0169384,0.170841,0.641972
351,231,3.86196,-0.0203113,0.170435,0.632089
355,227,3.86782,-0.0273382,0.173491,0.627899
359,223,3.8605,-0.0221573,0.173942,0.640815
363,219,3.86095,-0.0202804,0.173441,0.642704
368,215,3.86188,-0.0188379,0.174459,0.650392
372,211,3.86306,-0.0190265,0.172991,0.645603
376,207,3.86147,-0.0141094,0.171441,0.650931
380,203,3.86206,-0.0169176,0.17246,0.646435
384,199,3.85662,-0.01742,0.172393,0.647467
388,195,3.86151,-0.0171014,0.17094,0.641053
392,191,3.86125,-0.0173919,0.170925,0.641349
396,187,3.86049,-0.0209379,0.173444,0.642675
400,183,3.86276,-0.0159346,0.171955,0.647751
404,179,3.86012,-0.0176885,0.173902,0.650273
408,175,3.8599,-0.017478,0.173903,0.650246
412,171,3.85987,-0.0175171,0.173894,0.650216
416,167,3.8632,-0.0144587,0.172959,0.656583
420,163,3.85999,-0.0126607,0.172461,0.65869
424,159,3.86072,-0.0175621,0.173962,0.652802
428,155,3.85847,-0.0173083,0.173924,0.652853
432,151,3.86107,-0.0222087,0.173994,0.641791
436,147,3.85933,-0.0208503,0.171949,0.639025
444,143,3.86242,-0.0158293,0.171933,0.648668
448,139,3.86263,-0.0158762,0.171936,0.648044
452,135,3.86142,-0.0174326,0.172414,0.645762
456,131,3.86131,-0.0173522,0.172392,0.645349
463,127,3.86709,-0.0262533,0.172024,0.624276
467,123,3.86308,-0.0288019,0.172521,0.624014
474,119,3.81633,-0.490815,0.303938,0.217284
478,115,3.8643,-0.0233575,0.169441,0.623253
483,111,3.8581,-0.028391,0.169443,0.614233
487,107,3.86055,-0.0229491,0.169371,0.623955
491,103,3.86059,-0.0276658,0.167401,0.609503
495,99,3.85768,-0.0195192,0.165286,0.61675
499,95,3.86105,-0.0251552,0.166853,0.610101
503,91,3.86008,-0.0193832,0.163834,0.612221
507,87,3.86209,-0.0238894,0.16484,0.606569
511,83,3.86397,-0.0211949,0.165875,0.613653
516,79,3.86372,-0.0188991,0.165334,0.616266
521,75,3.86354,-0.0209208,0.165849,0.612935
525,71,3.8631,-0.0209261,0.164323,0.608426
529,67,3.85846,-0.021059,0.164266,0.608203
533,63,3.86247,-0.0251984,0.163846,0.598679
537,59,3.86023,-0.0217093,0.162728,0.602538
541,55,3.86526,-0.0245784,0.1618,0.593815
545,51,3.86221,-0.0238846,0.161748,0.594705
549,47,3.86406,-0.0246091,0.160251,0.588109
553,43,3.86196,-0.026585,0.160761,0.587327
557,39,3.86533,-0.0267711,0.160799,0.585809
561,35,3.86426,-0.0239251,0.161748,0.593213
566,31,3.86532,-0.0227248,0.161236,0.594193
570,27,3.86588,-0.0206358,0.160707,0.595155
574,23,3.8739,-0.0281887,0.159827,0.582063
578,19,3.86516,-0.024219,0.160229,0.586991
582,15,3.86331,-0.0277313,0.159743,0.578301
586,11,3.86678,-0.0230438,0.158228,0.583202
590,7,3.86475,-0.0267271,0.157719,0.574752
594,3,3.86351,-0.0267402,0.159188,0.578872
598,0,3.8642,-0.0275521,0.156171,0.567843
602,0,3.86723,-0.0230716,0.156682,0.576416
607,0,3.86604,-0.0252467,0.155681,0.56991
611,0,3.86802,-0.0205854,0.156172,0.578233
615,0,3.86864,-0.0181913,0.155659,0.57921
619,0,3.86846,-0.0194313,0.155644,0.578948
624,0,3.87631,-0.0249905,0.157217,0.574375
628,0,3.86856,-0.01968,0.155636,0.578681
632,0,3.86872,-0.0215876,0.153142,0.566347
637,0,3.86688,-0.0174115,0.153563,0.574974
641,0,3.8661,-0.0229815,0.153601,0.564382
645,0,3.86805,-0.0199451,0.154077,0.572142
653,0,3.86919,-0.0317008,0.152658,0.542947
660,0,3.86839,-0.0296871,0.142097,0.514744
667,0,3.8677,-0.0321598,0.139317,0.502139
673,0,3.86666,-0.0192683,0.134728,0.506469
677,0,3.86651,-0.0367039,0.137044,0.484877
684,0,3.86651,-0.0427901,0.136496,0.47475
688,0,3.8674,-0.0370972,0.137595,0.484066
692,0,3.86828,-0.0331248,0.136629,0.487915
696,0,3.8683,-0.0330894,0.136651,0.486958
703,0,3.87059,-0.0290048,0.135742,0.491262
708,0,3.87156,-0.0218843,0.132715,0.495705
712,0,3.86903,-0.033907,0.133635,0.476014
717,0,3.87061,-0.0352364,0.134228,0.471635
722,0,3.86859,-0.0371766,0.130562,0.461675
727,0,3.86989,-0.0361541,0.129108,0.455447
731,0,3.86956,-0.0375162,0.127361,0.450135
735,0,3.86523,-0.0454307,0.127076,0.43872
740,0,3.86639,-0.043797,0.125013,0.435971
744,0,3.86805,-0.0437848,0.123454,0.429912
748,0,3.86916,-0.0442799,0.123585,0.429795
755,0,3.864,-0.0473057,0.12398,0.427539
759,0,3.86713,-0.0419685,0.121482,0.425008
763,0,3.86195,-0.0528253,0.119643,0.408128
767,0,3.86627,-0.0527982,0.118344,0.402965
771,0,3.86269,-0.0532428,0.11653,0.397456
775,0,3.86421,-0.0540465,0.114988,0.390053
779,0,3.86329,-0.052403,0.115065,0.389664
783,0,3.86187,-0.0591242,0.112397,0.37744
801,0,3.85838,-0.0572306,0.110349,0.373788
805,0,3.85831,-0.0647321,0.106199,0.354245
809,0,3.85533,-0.0674756,0.106728,0.350312
814,0,3.85723,-0.0679733,0.101496,0.335058
818,0,3.85833,-0.0669642,0.103134,0.339513
823,0,3.86106,-0.0592537,0.100532,0.336799
827,0,3.8542,-0.0682223,0.0977872,0.323785
831,0,3.85127,-0.071988,0.0967606,0.314949
838,0,3.85069,-0.0664234,0.089092,0.294817
844,0,3.84965,-0.0781139,0.0797566,0.258211
848,0,3.84308,-0.089382,0.0792183,0.245982
852,0,3.85195,-0.0818308,0.0768261,0.245587
857,0,3.86565,-0.0362167,0.0666185,0.257074
863,0,3.85272,-0.0876674,0.0684308,0.216437
872,0,3.83936,-0.0992206,0.0677288,0.204738
876,0,3.84686,-0.0934176,0.0636116,0.19598
880,0,3.84253,-0.0996352,0.0641034,0.191726
896,0,3.8435,-0.0839065,0.0786102,0.251404
900,0,3.84819,-0.0850654,0.0788339,0.249104
904,0,3.84683,-0.0841474,0.0749809,0.238125
909,0,3.84675,-0.0883727,0.0718313,0.224352
915,0,3.85087,-0.0898047,0.070556,0.218024
924,0,3.84228,-0.0961047,0.0656324,0.199795
928,0,3.85038,-0.089682,0.0615675,0.191416
932,0,3.85129,-0.0895065,0.0616614,0.191836
935,0,3.85219,-0.0872567,0.0594598,0.187304