File: calce_correlation_analysis/matrices/CALCE_CX2_36_cycle_feature_matrix.csv
cycle_number,rul,voltage,current,capacity,charge_capacity
6,520,3.82124,-0.0488335,0.248022,0.893665
14,513,3.82479,-0.0572985,0.246759,0.86996
21,506,3.82687,-0.0577959,0.244342,0.862859
30,499,3.82389,-0.0561458,0.249854,0.872891
37,492,3.82286,-0.0564584,0.249612,0.871348
44,485,3.83165,-0.0623466,0.247084,0.853751
60,478,3.82203,-0.0544869,0.244717,0.861703
67,471,3.82421,-0.0590983,0.240023,0.842864
74,464,3.82554,-0.0663504,0.241164,0.833998
81,457,3.82706,-0.0607457,0.238297,0.832846
88,450,3.82476,-0.068494,0.239394,0.826953
101,443,3.82568,-0.0639757,0.237507,0.82143
108,436,3.82591,-0.0650145,0.235455,0.81425
115,429,3.82732,-0.0642462,0.232833,0.808426
123,422,3.82793,-0.0608306,0.236411,0.822492
130,415,3.82749,-0.0627008,0.23699,0.825472
141,408,3.82212,-0.0555399,0.230212,0.81605
153,401,3.8291,-0.0741506,0.240087,0.808816
164,394,3.82752,-0.0607334,0.23437,0.815023
171,387,3.8254,-0.0631561,0.236448,0.818458
178,380,3.82755,-0.0639705,0.230011,0.799657
186,373,3.82672,-0.06562,0.229381,0.791205
201,366,3.8304,-0.0693332,0.236812,0.805704
208,359,3.82505,-0.0631567,0.236702,0.817244
215,352,3.82599,-0.0636832,0.235709,0.81658
222,345,3.82587,-0.0600838,0.228106,0.796984
229,338,3.8271,-0.0649253,0.229136,0.790687
239,331,3.82741,-0.0692577,0.231968,0.790909
248,324,3.83574,-0.139567,0.250348,0.697842
258,317,3.82901,-0.064201,0.225151,0.780717
267,310,3.82545,-0.0695012,0.230207,0.785245
279,303,3.82806,-0.0634671,0.226429,0.785494
287,296,3.82559,-0.0658733,0.229257,0.78811
295,289,3.82467,-0.0713948,0.224485,0.76483
305,282,3.82578,-0.054422,0.215873,0.770453
318,275,3.82703,-0.0656009,0.225103,0.776216
325,268,3.82724,-0.063941,0.22451,0.777931
332,261,3.82566,-0.0562687,0.218435,0.774381
342,254,3.82815,-0.0653934,0.215577,0.752413
352,247,3.82883,-0.0766019,0.22437,0.751836
361,240,3.82733,-0.0591208,0.215271,0.759205
371,233,3.82787,-0.0677521,0.221225,0.761272
378,226,3.82832,-0.0658675,0.220713,0.762676
388,219,3.82784,-0.0795576,0.223261,0.742401
398,212,3.82507,-0.0625321,0.213083,0.750159
407,205,3.8265,-0.0736449,0.218793,0.743226
416,198,3.82914,-0.0682702,0.216992,0.747824
424,191,3.82836,-0.070785,0.219392,0.752571
431,184,3.82848,-0.064355,0.216877,0.752386
442,177,3.82279,-0.0643904,0.216511,0.753222
449,170,3.82463,-0.0600314,0.214558,0.756255
457,163,3.82868,-0.0637779,0.218786,0.757828
464,156,3.82784,-0.0637272,0.220259,0.763969
474,149,3.82628,-0.0641607,0.21676,0.754189
482,142,3.82691,-0.0659567,0.215514,0.748272
489,135,3.82685,-0.0665176,0.215929,0.748084
497,128,3.8277,-0.0668521,0.215449,0.741195
506,121,3.82611,-0.0687031,0.219493,0.751714
513,114,3.82692,-0.0668027,0.218992,0.75368
520,107,3.82778,-0.0640209,0.218545,0.756348
530,100,3.82636,-0.0666406,0.215346,0.741364
537,93,3.82749,-0.0670213,0.215007,0.741131
546,86,3.82344,-0.0634136,0.210279,0.732943
559,79,3.82781,-0.067419,0.214864,0.73996
568,72,3.82888,-0.0652959,0.214413,0.742654
577,65,3.829,-0.0584944,0.208967,0.738724
586,58,3.83123,-0.0661975,0.204026,0.712674
597,51,3.82904,-0.0653094,0.20433,0.71245
607,44,3.82709,-0.0745532,0.206845,0.703216
617,37,3.83003,-0.063903,0.206649,0.71822
626,30,3.82981,-0.0665561,0.208643,0.722095
633,23,3.82747,-0.0683288,0.211339,0.726116
642,16,3.82755,-0.0725862,0.212796,0.72173
649,9,3.82936,-0.0738269,0.210616,0.713673
659,2,3.8261,-0.0618508,0.201118,0.710679
667,0,3.82675,-0.0681321,0.201772,0.695296
674,0,3.82916,-0.0677247,0.205544,0.708506
682,0,3.82754,-0.0690082,0.207795,0.711609
691,0,3.83109,-0.0821689,0.206521,0.690423
698,0,3.82658,-0.0710383,0.202289,0.692809
707,0,3.83149,-0.0666821,0.202577,0.70252
715,0,3.83073,-0.0689994,0.202946,0.700086
722,0,3.82917,-0.074626,0.206727,0.698336
729,0,3.82942,-0.0676084,0.205111,0.706621
737,0,3.82741,-0.0695767,0.206432,0.7105
744,0,3.82857,-0.05998,0.201721,0.709037
753,0,3.82995,-0.0684759,0.202308,0.700387
765,0,3.83239,-0.0810621,0.208557,0.693091
777,0,3.82871,-0.0731368,0.196595,0.671177
786,0,3.83198,-0.0732442,0.191393,0.666639
797,0,3.8319,-0.0703666,0.193076,0.66732
804,0,3.83108,-0.068418,0.193607,0.668597
811,0,3.83079,-0.0690743,0.193779,0.668396
818,0,3.83015,-0.0737235,0.198173,0.675665
825,0,3.83014,-0.0699564,0.19526,0.673499
833,0,3.83002,-0.0701296,0.191289,0.661877
840,0,3.82859,-0.0741867,0.189743,0.652839
847,0,3.82909,-0.0747517,0.187946,0.646095
854,0,3.83126,-0.0744232,0.186465,0.645227
861,0,3.83205,-0.0714673,0.185295,0.641109
873,0,3.8311,-0.0673051,0.184632,0.650322
880,0,3.83118,-0.070355,0.183154,0.638254
887,0,3.8308,-0.0732311,0.183758,0.634423
894,0,3.82608,-0.0821939,0.185789,0.626597
901,0,3.8311,-0.0707937,0.187892,0.647904
908,0,3.82912,-0.0635121,0.179429,0.639364
915,0,3.83172,-0.0746878,0.181342,0.628779
922,0,3.8287,-0.0763806,0.184165,0.631478
932,0,3.82674,-0.0783944,0.186568,0.635193
940,0,3.83155,-0.0743997,0.183759,0.634495
947,0,3.82923,-0.079788,0.185057,0.628881
954,0,3.83046,-0.077481,0.180731,0.619275
961,0,3.82745,-0.0781814,0.180919,0.61563
968,0,3.8311,-0.0792731,0.178587,0.612605
975,0,3.82755,-0.0821675,0.178911,0.609585
986,0,3.82668,-0.076527,0.185313,0.627246
993,0,3.82743,-0.0799741,0.181091,0.617142
1000,0,3.82821,-0.0815782,0.179519,0.610326
1010,0,3.82806,-0.0840413,0.179549,0.61438
1017,0,3.82647,-0.0765828,0.176437,0.60779
1024,0,3.82769,-0.0820989,0.177115,0.602082
1032,0,3.83073,-0.0751436,0.177792,0.614585
1039,0,3.83032,-0.075854,0.177737,0.613312
1046,0,3.82881,-0.0782689,0.176776,0.603924
1053,0,3.82987,-0.0776857,0.172935,0.593633
1060,0,3.83075,-0.0773115,0.172954,0.593191
1067,0,3.82737,-0.080655,0.173061,0.591046
1074,0,3.82781,-0.0811703,0.171525,0.584238
1081,0,3.83693,-0.118803,0.183712,0.571535
1089,0,3.82825,-0.0805397,0.174946,0.598025
1096,0,3.82956,-0.0810925,0.172914,0.590803
1103,0,3.83075,-0.0778583,0.172879,0.593244
1110,0,3.82736,-0.0889168,0.171825,0.578376
1117,0,3.82635,-0.0861497,0.169854,0.574131
1126,0,3.82652,-0.0870965,0.170082,0.57402
1137,0,3.82756,-0.0804012,0.170688,0.582666
1144,0,3.82789,-0.0838854,0.16896,0.577058
1151,0,3.82335,-0.0821352,0.172642,0.577907
1158,0,3.82712,-0.0883669,0.171258,0.577986
1165,0,3.8301,-0.0810898,0.169018,0.575012
1174,0,3.82503,-0.0889456,0.168068,0.570673
1182,0,3.82604,-0.0862486,0.169323,0.574091
1189,0,3.82861,-0.080738,0.165076,0.564277
1196,0,3.82931,-0.0815772,0.165019,0.564312
1203,0,3.82849,-0.0843063,0.16214,0.553033
1210,0,3.82658,-0.0841387,0.163519,0.557683
1217,0,3.82653,-0.0809109,0.167179,0.57005
1225,0,3.82401,-0.0851271,0.167968,0.572093
1233,0,3.82583,-0.077824,0.16815,0.580845
1240,0,3.82598,-0.0773438,0.166817,0.574483
1247,0,3.82353,-0.086289,0.166183,0.562755
1254,0,3.82316,-0.0939248,0.164134,0.550262
1262,0,3.82332,-0.0846485,0.161251,0.551357
1269,0,3.82075,-0.0912443,0.161393,0.54521
1277,0,3.82226,-0.0878888,0.160327,0.540388
1284,0,3.8292,-0.0762848,0.163077,0.568043
1291,0,3.82793,-0.076617,0.163678,0.568677
1298,0,3.8255,-0.0821608,0.164054,0.562884
1305,0,3.82426,-0.087318,0.164199,0.554176
1313,0,3.82335,-0.0863991,0.159632,0.542386
1320,0,3.82413,-0.0834766,0.158364,0.540934
1327,0,3.82021,-0.0860038,0.161609,0.543079
1335,0,3.82382,-0.0799691,0.162446,0.557247
1343,0,3.82183,-0.0883824,0.161022,0.546978
1351,0,3.82007,-0.0868538,0.161836,0.54604
1361,0,3.82685,-0.0757549,0.161747,0.560729
1368,0,3.82821,-0.0795919,0.160536,0.559195
1376,0,3.82475,-0.083968,0.16094,0.54881
1383,0,3.82215,-0.0866964,0.161108,0.545109
1390,0,3.82147,-0.088313,0.159186,0.538665
1397,0,3.8257,-0.0832752,0.156795,0.537506
1406,0,3.8253,-0.0828164,0.156731,0.537007
1413,0,3.8236,-0.0814068,0.160736,0.550654
1420,0,3.82374,-0.081186,0.158704,0.543818
1430,0,3.82116,-0.0836468,0.159381,0.540528
1437,0,3.82193,-0.0847454,0.157382,0.533889
1444,0,3.82402,-0.0819731,0.155133,0.528816
1452,0,3.82142,-0.085572,0.156107,0.526757
1459,0,3.82471,-0.0884719,0.1524,0.522943
1466,0,3.82374,-0.0878697,0.152636,0.519883
1473,0,3.82105,-0.0882294,0.153786,0.520235
1483,0,3.82149,-0.0873816,0.153841,0.520656
1490,0,3.82197,-0.0872451,0.151546,0.516646
1497,0,3.82224,-0.0932181,0.14976,0.509964
1504,0,3.82159,-0.0854211,0.150733,0.514835
1511,0,3.82456,-0.0859845,0.149627,0.513105
1518,0,3.82314,-0.0864228,0.148993,0.508017
1525,0,3.81678,-0.0932336,0.152259,0.509685
1533,0,3.82105,-0.0899043,0.150036,0.506104
1540,0,3.81792,-0.0983013,0.148807,0.499745
1547,0,3.82137,-0.0917381,0.146021,0.497811
1554,0,3.8215,-0.0922748,0.146041,0.498057
1561,0,3.81956,-0.0884121,0.147575,0.498602
1568,0,3.81734,-0.0969104,0.14979,0.498819
1577,0,3.83111,-0.135919,0.16293,0.493258
1589,0,3.81951,-0.0984017,0.157451,0.51712
1597,0,3.82192,-0.0806212,0.159511,0.546047
1616,0,3.81426,-0.0870276,0.155462,0.526171
1630,0,3.81815,-0.084223,0.158462,0.534938
1637,0,3.81741,-0.0868777,0.16025,0.539952
1647,0,3.57825,-1.04175,0.337562,0.0214499
1657,0,3.81309,-0.100561,0.147323,0.485551
1670,0,3.81292,-0.0943461,0.143495,0.484075
1680,0,3.81328,-0.0970907,0.142467,0.474314
1702,0,3.80683,-0.0815276,0.147068,0.501351
1717,0,3.80797,-0.116267,0.146179,0.462678
1728,0,3.81009,-0.0910978,0.138323,0.474893
1754,0,3.80685,-0.103154,0.137084,0.451938
1768,0,3.80399,-0.125434,0.138686,0.433582
1780,0,3.80815,-0.0990348,0.126776,0.428887
1806,0,3.8067,-0.110396,0.12672,0.415934
1829,0,3.80483,-0.114899,0.124893,0.407991
1839,0,3.80754,-0.114095,0.120339,0.39435
1856,0,3.80836,-0.115578,0.113503,0.372299
1867,0,3.80605,-0.118855,0.124119,0.403544
1880,0,3.80247,-0.115471,0.120971,0.390354
1889,0,3.79946,-0.127457,0.121618,0.385051
1901,0,3.80644,-0.113903,0.12489,0.408231
1908,0,3.80312,-0.11577,0.127933,0.41312
1915,0,3.79781,-0.101873,0.123504,0.409964
1939,0,3.80446,-0.123374,0.10799,0.346467
1950,0,3.7993,-0.12146,0.119656,0.381788
1957,0,3.79932,-0.124421,0.121054,0.386987
1964,0,3.79949,-0.119054,0.121697,0.390555
1970,0,3.80759,-0.113218,0.101079,0.334519